   -1445.3219    246.8669   -131.7865  12103.8633    148.6368

       0.3398      0.5804      0.1267      0.0304      0.5000

      20.7481     20.7198
  infinite isoscalar matter 

  rho[fm-3] rhon[fm-3] rhop[fm-3] e[MeV]  e/a[MeV]

     0.002    0.001    0.001    0.000    0.174    1.191   -1.084    0.000    0.068
     0.004    0.002    0.002   -0.000   -0.086    1.890   -2.168    0.000    0.191
     0.006    0.003    0.003   -0.003   -0.423    2.477   -3.252    0.001    0.352
     0.008    0.004    0.004   -0.006   -0.793    3.000   -4.336    0.001    0.541
     0.010    0.005    0.005   -0.012   -1.180    3.481   -5.420    0.002    0.756
     0.012    0.006    0.006   -0.019   -1.576    3.931   -6.504    0.002    0.994
     0.014    0.007    0.007   -0.028   -1.975    4.357   -7.588    0.003    1.253
     0.016    0.008    0.008   -0.038   -2.375    4.763   -8.672    0.003    1.531
     0.018    0.009    0.009   -0.050   -2.773    5.152   -9.756    0.004    1.827
     0.020    0.010    0.010   -0.063   -3.169    5.526  -10.840    0.005    2.140
     0.022    0.011    0.011   -0.078   -3.561    5.889  -11.924    0.006    2.469
     0.024    0.012    0.012   -0.095   -3.948    6.241  -13.008    0.007    2.813
     0.026    0.013    0.013   -0.113   -4.330    6.583  -14.092    0.008    3.171
     0.028    0.014    0.014   -0.132   -4.707    6.916  -15.176    0.009    3.544
     0.030    0.015    0.015   -0.152   -5.078    7.242  -16.260    0.010    3.931
     0.032    0.016    0.016   -0.174   -5.443    7.560  -17.344    0.011    4.330
     0.034    0.017    0.017   -0.197   -5.801    7.872  -18.428    0.012    4.743
     0.036    0.018    0.018   -0.222   -6.154    8.178  -19.512    0.013    5.167
     0.038    0.019    0.019   -0.247   -6.500    8.478  -20.596    0.014    5.604
     0.040    0.020    0.020   -0.274   -6.839    8.773  -21.680    0.016    6.052
     0.042    0.021    0.021   -0.301   -7.173    9.063  -22.764    0.017    6.511
     0.044    0.022    0.022   -0.330   -7.499    9.348  -23.848    0.018    6.982
     0.046    0.023    0.023   -0.360   -7.819    9.629  -24.932    0.020    7.463
     0.048    0.024    0.024   -0.390   -8.132    9.907  -26.016    0.021    7.955
     0.050    0.025    0.025   -0.422   -8.439   10.180  -27.100    0.023    8.458
     0.052    0.026    0.026   -0.454   -8.740   10.450  -28.184    0.024    8.970
     0.054    0.027    0.027   -0.488   -9.033   10.716  -29.268    0.026    9.493
     0.056    0.028    0.028   -0.522   -9.320   10.979  -30.352    0.028   10.025
     0.058    0.029    0.029   -0.557   -9.601   11.239  -31.436    0.029   10.567
     0.060    0.030    0.030   -0.593   -9.875   11.496  -32.520    0.031   11.118
     0.062    0.031    0.031   -0.629  -10.143   11.750  -33.604    0.033   11.679
     0.064    0.032    0.032   -0.666  -10.404   12.001  -34.688    0.034   12.248
     0.066    0.033    0.033   -0.703  -10.659   12.250  -35.772    0.036   12.827
     0.068    0.034    0.034   -0.742  -10.907   12.496  -36.856    0.038   13.414
     0.070    0.035    0.035   -0.780  -11.150   12.740  -37.940    0.040   14.010
     0.072    0.036    0.036   -0.820  -11.385   12.981  -39.024    0.042   14.615
     0.074    0.037    0.037   -0.860  -11.615   13.221  -40.108    0.044   15.228
     0.076    0.038    0.038   -0.900  -11.838   13.458  -41.192    0.046   15.850
     0.078    0.039    0.039   -0.940  -12.055   13.693  -42.276    0.048   16.480
     0.080    0.040    0.040   -0.981  -12.266   13.926  -43.360    0.050   17.117
     0.082    0.041    0.041   -1.023  -12.471   14.157  -44.444    0.052   17.763
     0.084    0.042    0.042   -1.064  -12.670   14.386  -45.528    0.054   18.417
     0.086    0.043    0.043   -1.106  -12.863   14.614  -46.612    0.056   19.079
     0.088    0.044    0.044   -1.148  -13.049   14.839  -47.696    0.059   19.748
     0.090    0.045    0.045   -1.191  -13.230   15.063  -48.780    0.061   20.425
     0.092    0.046    0.046   -1.233  -13.405   15.286  -49.864    0.063   21.110
     0.094    0.047    0.047   -1.276  -13.574   15.506  -50.948    0.065   21.802
     0.096    0.048    0.048   -1.319  -13.737   15.726  -52.032    0.068   22.501
     0.098    0.049    0.049   -1.362  -13.894   15.943  -53.116    0.070   23.208
     0.100    0.050    0.050   -1.405  -14.045   16.159  -54.200    0.072   23.922
     0.102    0.051    0.051   -1.447  -14.191   16.374  -55.284    0.075   24.644
     0.104    0.052    0.052   -1.490  -14.331   16.588  -56.368    0.077   25.372
     0.106    0.053    0.053   -1.533  -14.465   16.800  -57.452    0.080   26.107
     0.108    0.054    0.054   -1.576  -14.593   17.010  -58.536    0.082   26.850
     0.110    0.055    0.055   -1.619  -14.716   17.220  -59.620    0.085   27.599
     0.112    0.056    0.056   -1.661  -14.833   17.428  -60.704    0.088   28.355
     0.114    0.057    0.057   -1.704  -14.945   17.635  -61.788    0.090   29.118
     0.116    0.058    0.058   -1.746  -15.051   17.840  -62.872    0.093   29.888
     0.118    0.059    0.059   -1.788  -15.152   18.045  -63.955    0.095   30.664
     0.120    0.060    0.060   -1.830  -15.247   18.248  -65.039    0.098   31.447
     0.122    0.061    0.061   -1.871  -15.336   18.450  -66.123    0.101   32.236
     0.124    0.062    0.062   -1.912  -15.420   18.651  -67.207    0.104   33.032
     0.126    0.063    0.063   -1.953  -15.499   18.851  -68.291    0.106   33.835
     0.128    0.064    0.064   -1.993  -15.573   19.050  -69.375    0.109   34.643
     0.130    0.065    0.065   -2.033  -15.641   19.248  -70.459    0.112   35.458
     0.132    0.066    0.066   -2.073  -15.703   19.445  -71.543    0.115   36.280
     0.134    0.067    0.067   -2.112  -15.761   19.641  -72.627    0.118   37.107
     0.136    0.068    0.068   -2.151  -15.813   19.836  -73.711    0.121   37.941
     0.138    0.069    0.069   -2.189  -15.860   20.030  -74.795    0.124   38.781
     0.140    0.070    0.070   -2.226  -15.902   20.223  -75.879    0.127   39.627
     0.142    0.071    0.071   -2.263  -15.939   20.415  -76.963    0.130   40.480
     0.144    0.072    0.072   -2.300  -15.970   20.606  -78.047    0.133   41.338
     0.146    0.073    0.073   -2.335  -15.996   20.797  -79.131    0.136   42.202
     0.148    0.074    0.074   -2.371  -16.018   20.986  -80.215    0.139   43.072
     0.150    0.075    0.075   -2.405  -16.034   21.175  -81.299    0.142   43.948
     0.152    0.076    0.076   -2.439  -16.045   21.363  -82.383    0.146   44.830
     0.154    0.077    0.077   -2.472  -16.051   21.550  -83.467    0.149   45.718
     0.156    0.078    0.078   -2.504  -16.052   21.736  -84.551    0.152   46.611
     0.158    0.079    0.079   -2.536  -16.048   21.921  -85.635    0.155   47.511
     0.160    0.080    0.080   -2.566  -16.039   22.106  -86.719    0.159   48.415
     0.162    0.081    0.081   -2.596  -16.026   22.290  -87.803    0.162   49.326
     0.164    0.082    0.082   -2.625  -16.007   22.473  -88.887    0.165   50.242
     0.166    0.083    0.083   -2.653  -15.983   22.655  -89.971    0.169   51.164
     0.168    0.084    0.084   -2.680  -15.955   22.837  -91.055    0.172   52.092
     0.170    0.085    0.085   -2.707  -15.922   23.018  -92.139    0.175   53.025
     0.172    0.086    0.086   -2.732  -15.884   23.198  -93.223    0.179   53.963
     0.174    0.087    0.087   -2.756  -15.841   23.377  -94.307    0.182   54.907
     0.176    0.088    0.088   -2.780  -15.793   23.556  -95.391    0.186   55.856
     0.178    0.089    0.089   -2.802  -15.740   23.734  -96.475    0.189   56.811
     0.180    0.090    0.090   -2.823  -15.683   23.912  -97.559    0.193   57.771
     0.182    0.091    0.091   -2.843  -15.621   24.088  -98.643    0.197   58.737
     0.184    0.092    0.092   -2.862  -15.555   24.265  -99.727    0.200   59.708
     0.186    0.093    0.093   -2.880  -15.483   24.440 -100.811    0.204   60.684
     0.188    0.094    0.094   -2.897  -15.407   24.615 -101.895    0.207   61.665
     0.190    0.095    0.095   -2.912  -15.327   24.789 -102.979    0.211   62.652
     0.192    0.096    0.096   -2.926  -15.242   24.963 -104.063    0.215   63.644
     0.194    0.097    0.097   -2.939  -15.152   25.136 -105.147    0.219   64.641
     0.196    0.098    0.098   -2.951  -15.057   25.308 -106.231    0.222   65.643
     0.198    0.099    0.099   -2.962  -14.958   25.480 -107.315    0.226   66.650
     0.200    0.100    0.100   -2.971  -14.855   25.652 -108.399    0.230   67.663
     0.202    0.101    0.101   -2.979  -14.747   25.822 -109.483    0.234   68.680
     0.204    0.102    0.102   -2.985  -14.634   25.992 -110.567    0.238   69.703
     0.206    0.103    0.103   -2.991  -14.517   26.162 -111.651    0.242   70.730
     0.208    0.104    0.104   -2.994  -14.396   26.331 -112.735    0.246   71.763
     0.210    0.105    0.105   -2.997  -14.270   26.500 -113.819    0.250   72.800
     0.212    0.106    0.106   -2.998  -14.139   26.668 -114.903    0.253   73.843
     0.214    0.107    0.107   -2.997  -14.004   26.835 -115.987    0.257   74.890
     0.216    0.108    0.108   -2.995  -13.865   27.002 -117.071    0.261   75.942
     0.218    0.109    0.109   -2.991  -13.721   27.168 -118.155    0.266   77.000
     0.220    0.110    0.110   -2.986  -13.573   27.334 -119.239    0.270   78.062
     0.222    0.111    0.111   -2.979  -13.421   27.500 -120.323    0.274   79.129
     0.224    0.112    0.112   -2.971  -13.264   27.665 -121.407    0.278   80.200
     0.226    0.113    0.113   -2.961  -13.103   27.829 -122.491    0.282   81.277
     0.228    0.114    0.114   -2.950  -12.938   27.993 -123.575    0.286   82.358
     0.230    0.115    0.115   -2.937  -12.768   28.157 -124.659    0.290   83.444
     0.232    0.116    0.116   -2.922  -12.594   28.320 -125.743    0.295   84.535
     0.234    0.117    0.117   -2.905  -12.416   28.482 -126.827    0.299   85.630
     0.236    0.118    0.118   -2.887  -12.233   28.644 -127.911    0.303   86.731
     0.238    0.119    0.119   -2.867  -12.047   28.806 -128.995    0.307   87.835
     0.240    0.120    0.120   -2.845  -11.856   28.967 -130.079    0.312   88.945
     0.242    0.121    0.121   -2.822  -11.660   29.128 -131.163    0.316   90.059
     0.244    0.122    0.122   -2.796  -11.461   29.288 -132.247    0.320   91.178
     0.246    0.123    0.123   -2.769  -11.257   29.448 -133.331    0.325   92.301
     0.248    0.124    0.124   -2.740  -11.050   29.607 -134.415    0.329   93.429
     0.250    0.125    0.125   -2.709  -10.838   29.766 -135.499    0.334   94.561
     0.252    0.126    0.126   -2.677  -10.622   29.925 -136.583    0.338   95.698
     0.254    0.127    0.127   -2.642  -10.402   30.083 -137.667    0.343   96.840
     0.256    0.128    0.128   -2.605  -10.177   30.240 -138.751    0.347   97.986
     0.258    0.129    0.129   -2.567   -9.949   30.398 -139.835    0.352   99.137
     0.260    0.130    0.130   -2.526   -9.717   30.555 -140.919    0.356  100.292
     0.262    0.131    0.131   -2.484   -9.480   30.711 -142.003    0.361  101.451
     0.264    0.132    0.132   -2.439   -9.240   30.867 -143.087    0.365  102.615
     0.266    0.133    0.133   -2.393   -8.995   31.023 -144.171    0.370  103.783
     0.268    0.134    0.134   -2.344   -8.746   31.178 -145.255    0.375  104.956
     0.270    0.135    0.135   -2.293   -8.494   31.333 -146.339    0.379  106.133
     0.272    0.136    0.136   -2.240   -8.237   31.488 -147.423    0.384  107.314
     0.274    0.137    0.137   -2.186   -7.976   31.642 -148.507    0.389  108.500
     0.276    0.138    0.138   -2.128   -7.712   31.796 -149.591    0.393  109.690
     0.278    0.139    0.139   -2.069   -7.443   31.949 -150.675    0.398  110.885
     0.280    0.140    0.140   -2.008   -7.170   32.102 -151.759    0.403  112.083
     0.282    0.141    0.141   -1.944   -6.894   32.255 -152.843    0.408  113.286
     0.284    0.142    0.142   -1.878   -6.613   32.407 -153.927    0.413  114.494
     0.286    0.143    0.143   -1.810   -6.329   32.559 -155.011    0.417  115.705
     0.288    0.144    0.144   -1.740   -6.041   32.711 -156.095    0.422  116.921
     0.290    0.145    0.145   -1.667   -5.748   32.862 -157.179    0.427  118.141
     0.292    0.146    0.146   -1.592   -5.452   33.013 -158.263    0.432  119.365
     0.294    0.147    0.147   -1.515   -5.152   33.163 -159.347    0.437  120.594
     0.296    0.148    0.148   -1.435   -4.849   33.314 -160.431    0.442  121.826
     0.298    0.149    0.149   -1.353   -4.541   33.464 -161.515    0.447  123.063
     0.300    0.150    0.150   -1.269   -4.229   33.613 -162.599    0.452  124.304
     0.302    0.151    0.151   -1.182   -3.914   33.762 -163.683    0.457  125.549
     0.304    0.152    0.152   -1.093   -3.595   33.911 -164.767    0.462  126.799
     0.306    0.153    0.153   -1.001   -3.272   34.060 -165.851    0.467  128.052
     0.308    0.154    0.154   -0.907   -2.945   34.208 -166.935    0.472  129.309
     0.310    0.155    0.155   -0.810   -2.614   34.356 -168.019    0.478  130.571
     0.312    0.156    0.156   -0.711   -2.280   34.504 -169.103    0.483  131.837
     0.314    0.157    0.157   -0.610   -1.942   34.651 -170.187    0.488  133.106
     0.316    0.158    0.158   -0.506   -1.600   34.798 -171.271    0.493  134.380
     0.318    0.159    0.159   -0.399   -1.254   34.944 -172.355    0.498  135.658
     0.320    0.160    0.160   -0.290   -0.905   35.091 -173.439    0.503  136.940
     0.322    0.161    0.161   -0.178   -0.552   35.237 -174.523    0.509  138.225
     0.324    0.162    0.162   -0.063   -0.195   35.383 -175.607    0.514  139.515
     0.326    0.163    0.163    0.054    0.166   35.528 -176.691    0.519  140.809
     0.328    0.164    0.164    0.174    0.530   35.673 -177.775    0.525  142.107
     0.330    0.165    0.165    0.296    0.898   35.818 -178.859    0.530  143.409
     0.332    0.166    0.166    0.422    1.270   35.963 -179.943    0.535  144.714
     0.334    0.167    0.167    0.549    1.645   36.107 -181.027    0.541  146.024
     0.336    0.168    0.168    0.680    2.024   36.251 -182.111    0.546  147.337
     0.338    0.169    0.169    0.813    2.407   36.395 -183.195    0.552  148.655
     0.340    0.170    0.170    0.950    2.793   36.538 -184.279    0.557  149.976
     0.342    0.171    0.171    1.088    3.183   36.681 -185.363    0.562  151.301
     0.344    0.172    0.172    1.230    3.576   36.824 -186.447    0.568  152.631
     0.346    0.173    0.173    1.375    3.973   36.967 -187.531    0.573  153.964
     0.348    0.174    0.174    1.522    4.374   37.109 -188.615    0.579  155.301
     0.350    0.175    0.175    1.672    4.778   37.251 -189.699    0.585  156.641
     0.352    0.176    0.176    1.826    5.186   37.393 -190.783    0.590  157.986
     0.354    0.177    0.177    1.982    5.598   37.534 -191.867    0.596  159.334
     0.356    0.178    0.178    2.141    6.013   37.676 -192.950    0.601  160.686
     0.358    0.179    0.179    2.302    6.431   37.817 -194.034    0.607  162.042
     0.360    0.180    0.180    2.467    6.854   37.957 -195.118    0.613  163.402
     0.362    0.181    0.181    2.635    7.279   38.098 -196.202    0.618  164.766
     0.364    0.182    0.182    2.806    7.709   38.238 -197.286    0.624  166.133
     0.366    0.183    0.183    2.980    8.141   38.378 -198.370    0.630  167.504
     0.368    0.184    0.184    3.157    8.578   38.518 -199.454    0.636  168.879
     0.370    0.185    0.185    3.336    9.018   38.657 -200.538    0.641  170.258
     0.372    0.186    0.186    3.519    9.461   38.796 -201.622    0.647  171.640
     0.374    0.187    0.187    3.705    9.908   38.935 -202.706    0.653  173.026
     0.376    0.188    0.188    3.895   10.358   39.074 -203.790    0.659  174.416
     0.378    0.189    0.189    4.087   10.812   39.212 -204.874    0.665  175.809
     0.380    0.190    0.190    4.282   11.269   39.350 -205.958    0.670  177.206
     0.382    0.191    0.191    4.481   11.730   39.488 -207.042    0.676  178.607
     0.384    0.192    0.192    4.682   12.194   39.626 -208.126    0.682  180.012
     0.386    0.193    0.193    4.887   12.661   39.764 -209.210    0.688  181.420
     0.388    0.194    0.194    5.095   13.132   39.901 -210.294    0.694  182.832
     0.390    0.195    0.195    5.307   13.607   40.038 -211.378    0.700  184.247
     0.392    0.196    0.196    5.521   14.085   40.175 -212.462    0.706  185.666
     0.394    0.197    0.197    5.739   14.566   40.311 -213.546    0.712  187.089
     0.396    0.198    0.198    5.960   15.051   40.447 -214.630    0.718  188.515
     0.398    0.199    0.199    6.184   15.539   40.583 -215.714    0.724  189.945
     0.400    0.200    0.200    6.412   16.030   40.719 -216.798    0.730  191.379
     0.402    0.201    0.201    6.643   16.525   40.855 -217.882    0.736  192.816
     0.404    0.202    0.202    6.877   17.023   40.990 -218.966    0.742  194.257
     0.406    0.203    0.203    7.115   17.525   41.126 -220.050    0.749  195.701
     0.408    0.204    0.204    7.356   18.030   41.260 -221.134    0.755  197.149
     0.410    0.205    0.205    7.601   18.538   41.395 -222.218    0.761  198.600
     0.412    0.206    0.206    7.849   19.050   41.530 -223.302    0.767  200.055
     0.414    0.207    0.207    8.100   19.565   41.664 -224.386    0.773  201.514
     0.416    0.208    0.208    8.355   20.083   41.798 -225.470    0.780  202.976
     0.418    0.209    0.209    8.613   20.605   41.932 -226.554    0.786  204.441
     0.420    0.210    0.210    8.874   21.130   42.066 -227.638    0.792  205.910
     0.422    0.211    0.211    9.140   21.658   42.199 -228.722    0.798  207.383
     0.424    0.212    0.212    9.408   22.190   42.332 -229.806    0.805  208.859
     0.426    0.213    0.213    9.681   22.724   42.465 -230.890    0.811  210.338
     0.428    0.214    0.214    9.956   23.263   42.598 -231.974    0.817  211.821
     0.430    0.215    0.215   10.236   23.804   42.731 -233.058    0.824  213.308
     0.432    0.216    0.216   10.519   24.349   42.863 -234.142    0.830  214.798
     0.434    0.217    0.217   10.805   24.897   42.995 -235.226    0.837  216.291
     0.436    0.218    0.218   11.095   25.448   43.127 -236.310    0.843  217.788
     0.438    0.219    0.219   11.389   26.003   43.259 -237.394    0.850  219.288
     0.440    0.220    0.220   11.687   26.560   43.391 -238.478    0.856  220.792
     0.442    0.221    0.221   11.988   27.121   43.522 -239.562    0.862  222.299
     0.444    0.222    0.222   12.292   27.686   43.653 -240.646    0.869  223.810
     0.446    0.223    0.223   12.601   28.253   43.784 -241.730    0.876  225.323
     0.448    0.224    0.224   12.913   28.824   43.915 -242.814    0.882  226.841
     0.450    0.225    0.225   13.229   29.398   44.046 -243.898    0.889  228.361
     0.452    0.226    0.226   13.549   29.975   44.176 -244.982    0.895  229.886
     0.454    0.227    0.227   13.872   30.555   44.306 -246.066    0.902  231.413
     0.456    0.228    0.228   14.199   31.139   44.436 -247.150    0.908  232.944
     0.458    0.229    0.229   14.530   31.725   44.566 -248.234    0.915  234.478
     0.460    0.230    0.230   14.865   32.315   44.696 -249.318    0.922  236.016
     0.462    0.231    0.231   15.204   32.908   44.825 -250.402    0.928  237.557
     0.464    0.232    0.232   15.546   33.504   44.954 -251.486    0.935  239.101
     0.466    0.233    0.233   15.892   34.104   45.084 -252.570    0.942  240.648
     0.468    0.234    0.234   16.243   34.706   45.212 -253.654    0.949  242.199
     0.470    0.235    0.235   16.597   35.312   45.341 -254.738    0.955  243.754
     0.472    0.236    0.236   16.955   35.921   45.470 -255.822    0.962  245.311
     0.474    0.237    0.237   17.317   36.533   45.598 -256.906    0.969  246.872
     0.476    0.238    0.238   17.682   37.148   45.726 -257.990    0.976  248.436
     0.478    0.239    0.239   18.052   37.766   45.854 -259.074    0.983  250.003
     0.480    0.240    0.240   18.426   38.388   45.982 -260.158    0.990  251.574
     0.482    0.241    0.241   18.804   39.012   46.110 -261.242    0.996  253.148
     0.484    0.242    0.242   19.186   39.640   46.237 -262.326    1.003  254.725
     0.486    0.243    0.243   19.571   40.271   46.364 -263.410    1.010  256.306
     0.488    0.244    0.244   19.961   40.904   46.492 -264.494    1.017  257.890
     0.490    0.245    0.245   20.355   41.541   46.618 -265.578    1.024  259.477
     0.492    0.246    0.246   20.753   42.181   46.745 -266.662    1.031  261.067
     0.494    0.247    0.247   21.155   42.824   46.872 -267.746    1.038  262.660
     0.496    0.248    0.248   21.561   43.471   46.998 -268.830    1.045  264.257
     0.498    0.249    0.249   21.972   44.120   47.125 -269.914    1.052  265.857
     0.500    0.250    0.250   22.386   44.772   47.251 -270.998    1.059  267.460
     0.502    0.251    0.251   22.805   45.427   47.377 -272.082    1.066  269.066
     0.504    0.252    0.252   23.227   46.086   47.502 -273.166    1.073  270.676
     0.506    0.253    0.253   23.654   46.747   47.628 -274.250    1.080  272.289
     0.508    0.254    0.254   24.085   47.412   47.753 -275.334    1.088  273.905
     0.510    0.255    0.255   24.520   48.079   47.879 -276.418    1.095  275.524
     0.512    0.256    0.256   24.960   48.750   48.004 -277.502    1.102  277.146
     0.514    0.257    0.257   25.404   49.424   48.129 -278.586    1.109  278.772
     0.516    0.258    0.258   25.852   50.100   48.253 -279.670    1.116  280.400
     0.518    0.259    0.259   26.304   50.780   48.378 -280.754    1.124  282.032
     0.520    0.260    0.260   26.761   51.463   48.502 -281.838    1.131  283.667
     0.522    0.261    0.261   27.221   52.148   48.627 -282.922    1.138  285.305
     0.524    0.262    0.262   27.686   52.837   48.751 -284.006    1.145  286.947
     0.526    0.263    0.263   28.156   53.528   48.875 -285.090    1.153  288.591
     0.528    0.264    0.264   28.630   54.223   48.999 -286.174    1.160  290.238
     0.530    0.265    0.265   29.108   54.921   49.122 -287.258    1.167  291.889
     0.532    0.266    0.266   29.591   55.621   49.246 -288.342    1.175  293.543
     0.534    0.267    0.267   30.078   56.325   49.369 -289.426    1.182  295.200
     0.536    0.268    0.268   30.569   57.032   49.492 -290.510    1.189  296.860
     0.538    0.269    0.269   31.065   57.741   49.615 -291.594    1.197  298.523
     0.540    0.270    0.270   31.565   58.454   49.738 -292.678    1.204  300.189
     0.542    0.271    0.271   32.070   59.169   49.861 -293.762    1.212  301.858
     0.544    0.272    0.272   32.579   59.887   49.983 -294.846    1.219  303.531
     0.546    0.273    0.273   33.092   60.609   50.106 -295.930    1.227  305.206
     0.548    0.274    0.274   33.611   61.333   50.228 -297.014    1.234  306.884
     0.550    0.275    0.275   34.133   62.060   50.350 -298.098    1.242  308.566
     0.552    0.276    0.276   34.660   62.790   50.472 -299.182    1.249  310.251
     0.554    0.277    0.277   35.192   63.524   50.594 -300.266    1.257  311.938
     0.556    0.278    0.278   35.728   64.259   50.716 -301.350    1.264  313.629
     0.558    0.279    0.279   36.269   64.998   50.837 -302.434    1.272  315.323
     0.560    0.280    0.280   36.815   65.740   50.959 -303.518    1.279  317.020
     0.562    0.281    0.281   37.365   66.485   51.080 -304.602    1.287  318.719
     0.564    0.282    0.282   37.919   67.233   51.201 -305.686    1.295  320.422
     0.566    0.283    0.283   38.478   67.983   51.322 -306.770    1.302  322.128
     0.568    0.284    0.284   39.042   68.737   51.443 -307.854    1.310  323.837
     0.570    0.285    0.285   39.611   69.493   51.564 -308.938    1.318  325.549
     0.572    0.286    0.286   40.184   70.252   51.684 -310.022    1.325  327.264
     0.574    0.287    0.287   40.762   71.014   51.805 -311.106    1.333  328.982
     0.576    0.288    0.288   41.345   71.779   51.925 -312.190    1.341  330.703
     0.578    0.289    0.289   41.932   72.547   52.045 -313.274    1.349  332.427
     0.580    0.290    0.290   42.524   73.317   52.165 -314.358    1.356  334.154
     0.582    0.291    0.291   43.121   74.091   52.285 -315.442    1.364  335.883
     0.584    0.292    0.292   43.723   74.867   52.405 -316.526    1.372  337.616
     0.586    0.293    0.293   44.329   75.647   52.524 -317.610    1.380  339.352
     0.588    0.294    0.294   44.940   76.429   52.644 -318.694    1.388  341.091
     0.590    0.295    0.295   45.556   77.214   52.763 -319.777    1.396  342.833
     0.592    0.296    0.296   46.177   78.001   52.882 -320.862    1.404  344.577
     0.594    0.297    0.297   46.802   78.792   53.001 -321.945    1.412  346.325
     0.596    0.298    0.298   47.433   79.585   53.120 -323.029    1.419  348.076
     0.598    0.299    0.299   48.068   80.382   53.239 -324.113    1.427  349.829
     0.600    0.300    0.300   48.708   81.181   53.357 -325.197    1.435  351.586
     0.602    0.301    0.301   49.354   81.983   53.476 -326.281    1.443  353.345
     0.604    0.302    0.302   50.004   82.787   53.594 -327.365    1.451  355.107
     0.606    0.303    0.303   50.659   83.595   53.713 -328.449    1.459  356.872
     0.608    0.304    0.304   51.318   84.405   53.831 -329.533    1.467  358.641
     0.610    0.305    0.305   51.983   85.218   53.949 -330.617    1.475  360.412
     0.612    0.306    0.306   52.653   86.034   54.066 -331.701    1.484  362.186
     0.614    0.307    0.307   53.328   86.853   54.184 -332.785    1.492  363.962
     0.616    0.308    0.308   54.007   87.674   54.302 -333.869    1.500  365.742
     0.618    0.309    0.309   54.692   88.499   54.419 -334.953    1.508  367.525
     0.620    0.310    0.310   55.382   89.326   54.537 -336.037    1.516  369.310
     0.622    0.311    0.311   56.077   90.155   54.654 -337.121    1.524  371.099
     0.624    0.312    0.312   56.777   90.988   54.771 -338.205    1.532  372.890
     0.626    0.313    0.313   57.481   91.823   54.888 -339.289    1.541  374.684
     0.628    0.314    0.314   58.191   92.662   55.005 -340.373    1.549  376.481
     0.630    0.315    0.315   58.906   93.502   55.121 -341.457    1.557  378.281
     0.632    0.316    0.316   59.627   94.346   55.238 -342.541    1.565  380.084
     0.634    0.317    0.317   60.352   95.192   55.355 -343.625    1.573  381.890
     0.636    0.318    0.318   61.082   96.042   55.471 -344.709    1.582  383.698
     0.638    0.319    0.319   61.818   96.893   55.587 -345.793    1.590  385.510
     0.640    0.320    0.320   62.559   97.748   55.703 -346.877    1.598  387.324
     0.642    0.321    0.321   63.305   98.605   55.819 -347.961    1.607  389.141
     0.644    0.322    0.322   64.056   99.465   55.935 -349.045    1.615  390.961
     0.646    0.323    0.323   64.812  100.328   56.051 -350.129    1.623  392.783
     0.648    0.324    0.324   65.573  101.194   56.166 -351.213    1.632  394.609
     0.650    0.325    0.325   66.340  102.062   56.282 -352.297    1.640  396.437
     0.652    0.326    0.326   67.112  102.933   56.397 -353.381    1.649  398.268
     0.654    0.327    0.327   67.889  103.806   56.513 -354.465    1.657  400.102
     0.656    0.328    0.328   68.672  104.683   56.628 -355.549    1.666  401.939
     0.658    0.329    0.329   69.460  105.562   56.743 -356.633    1.674  403.778
     0.660    0.330    0.330   70.253  106.444   56.858 -357.717    1.682  405.621
     0.662    0.331    0.331   71.051  107.328   56.973 -358.801    1.691  407.466
     0.664    0.332    0.332   71.855  108.215   57.087 -359.885    1.699  409.314
     0.666    0.333    0.333   72.664  109.105   57.202 -360.969    1.708  411.164
     0.668    0.334    0.334   73.478  109.997   57.316 -362.053    1.717  413.018
     0.670    0.335    0.335   74.298  110.893   57.431 -363.137    1.725  414.874
     0.672    0.336    0.336   75.123  111.791   57.545 -364.221    1.734  416.733
     0.674    0.337    0.337   75.954  112.691   57.659 -365.305    1.742  418.595
     0.676    0.338    0.338   76.790  113.594   57.773 -366.389    1.751  420.459
     0.678    0.339    0.339   77.631  114.500   57.887 -367.473    1.760  422.327
     0.680    0.340    0.340   78.478  115.409   58.001 -368.557    1.768  424.197
     0.682    0.341    0.341   79.330  116.320   58.114 -369.641    1.777  426.070
     0.684    0.342    0.342   80.188  117.234   58.228 -370.725    1.786  427.945
     0.686    0.343    0.343   81.051  118.150   58.341 -371.809    1.794  429.824
     0.688    0.344    0.344   81.920  119.069   58.455 -372.893    1.803  431.705
     0.690    0.345    0.345   82.794  119.991   58.568 -373.977    1.812  433.588
     0.692    0.346    0.346   83.674  120.916   58.681 -375.061    1.821  435.475
     0.694    0.347    0.347   84.559  121.843   58.794 -376.145    1.829  437.364
     0.696    0.348    0.348   85.450  122.772   58.907 -377.229    1.838  439.256
     0.698    0.349    0.349   86.346  123.705   59.020 -378.313    1.847  441.151
     0.700    0.350    0.350   87.248  124.640   59.132 -379.397    1.856  443.048
     0.702    0.351    0.351   88.155  125.577   59.245 -380.481    1.865  444.948
     0.704    0.352    0.352   89.068  126.517   59.358 -381.565    1.874  446.851
     0.706    0.353    0.353   89.987  127.460   59.470 -382.649    1.882  448.757
     0.708    0.354    0.354   90.911  128.406   59.582 -383.733    1.891  450.665
     0.710    0.355    0.355   91.841  129.354   59.694 -384.817    1.900  452.576
     0.712    0.356    0.356   92.777  130.304   59.806 -385.901    1.909  454.490
     0.714    0.357    0.357   93.718  131.257   59.918 -386.985    1.918  456.406
     0.716    0.358    0.358   94.665  132.213   60.030 -388.069    1.927  458.325
     0.718    0.359    0.359   95.617  133.172   60.142 -389.153    1.936  460.247
     0.720    0.360    0.360   96.576  134.133   60.253 -390.237    1.945  462.171
     0.722    0.361    0.361   97.540  135.096   60.365 -391.321    1.954  464.098
     0.724    0.362    0.362   98.509  136.063   60.476 -392.405    1.963  466.028
     0.726    0.363    0.363   99.485  137.031   60.588 -393.489    1.972  467.960
     0.728    0.364    0.364  100.466  138.003   60.699 -394.573    1.981  469.895
     0.730    0.365    0.365  101.453  138.977   60.810 -395.657    1.990  471.833
     0.732    0.366    0.366  102.446  139.953   60.921 -396.741    1.999  473.773
     0.734    0.367    0.367  103.444  140.932   61.032 -397.825    2.008  475.716
     0.736    0.368    0.368  104.448  141.914   61.143 -398.909    2.018  477.662
     0.738    0.369    0.369  105.459  142.898   61.254 -399.993    2.027  479.610
     0.740    0.370    0.370  106.475  143.885   61.364 -401.077    2.036  481.561
     0.742    0.371    0.371  107.496  144.874   61.475 -402.161    2.045  483.515
     0.744    0.372    0.372  108.524  145.866   61.585 -403.245    2.054  485.471
     0.746    0.373    0.373  109.558  146.860   61.695 -404.329    2.064  487.430
     0.748    0.374    0.374  110.597  147.857   61.806 -405.413    2.073  489.392
     0.750    0.375    0.375  111.642  148.857   61.916 -406.497    2.082  491.356
     0.752    0.376    0.376  112.694  149.859   62.026 -407.581    2.091  493.322
     0.754    0.377    0.377  113.751  150.863   62.136 -408.665    2.101  495.292
     0.756    0.378    0.378  114.814  151.870   62.246 -409.749    2.110  497.264
     0.758    0.379    0.379  115.883  152.880   62.355 -410.833    2.119  499.238
     0.760    0.380    0.380  116.958  153.892   62.465 -411.917    2.128  501.215
     0.762    0.381    0.381  118.039  154.907   62.574 -413.001    2.138  503.195
     0.764    0.382    0.382  119.126  155.924   62.684 -414.085    2.147  505.178
     0.766    0.383    0.383  120.219  156.944   62.793 -415.169    2.157  507.163
     0.768    0.384    0.384  121.318  157.966   62.903 -416.253    2.166  509.150
     0.770    0.385    0.385  122.423  158.991   63.012 -417.337    2.175  511.140
     0.772    0.386    0.386  123.534  160.018   63.121 -418.421    2.185  513.133
     0.774    0.387    0.387  124.651  161.048   63.230 -419.505    2.194  515.128
     0.776    0.388    0.388  125.774  162.080   63.339 -420.589    2.204  517.126
     0.778    0.389    0.389  126.903  163.115   63.447 -421.673    2.213  519.127
     0.780    0.390    0.390  128.038  164.152   63.556 -422.757    2.223  521.130
     0.782    0.391    0.391  129.180  165.192   63.665 -423.841    2.232  523.135
     0.784    0.392    0.392  130.327  166.234   63.773 -424.925    2.242  525.144
     0.786    0.393    0.393  131.481  167.278   63.882 -426.009    2.251  527.154
     0.788    0.394    0.394  132.641  168.326   63.990 -427.093    2.261  529.168
     0.790    0.395    0.395  133.807  169.375   64.098 -428.177    2.270  531.184
     0.792    0.396    0.396  134.979  170.428   64.206 -429.261    2.280  533.202
     0.794    0.397    0.397  136.157  171.482   64.314 -430.345    2.289  535.223
     0.796    0.398    0.398  137.341  172.539   64.422 -431.429    2.299  537.247
     0.798    0.399    0.399  138.532  173.599   64.530 -432.513    2.309  539.273
     0.800    0.400    0.400  139.729  174.661   64.638 -433.597    2.318  541.301
     0.802    0.401    0.401  140.932  175.725   64.746 -434.681    2.328  543.332
     0.804    0.402    0.402  142.141  176.792   64.853 -435.765    2.338  545.366
     0.806    0.403    0.403  143.357  177.862   64.961 -436.849    2.347  547.402
     0.808    0.404    0.404  144.578  178.934   65.068 -437.933    2.357  549.441
     0.810    0.405    0.405  145.807  180.008   65.175 -439.017    2.367  551.482
     0.812    0.406    0.406  147.041  181.085   65.283 -440.101    2.377  553.526
     0.814    0.407    0.407  148.282  182.164   65.390 -441.185    2.386  555.572
     0.816    0.408    0.408  149.529  183.246   65.497 -442.269    2.396  557.621
     0.818    0.409    0.409  150.782  184.330   65.604 -443.353    2.406  559.673
     0.820    0.410    0.410  152.041  185.416   65.711 -444.436    2.416  561.726
     0.822    0.411    0.411  153.308  186.505   65.818 -445.521    2.426  563.783
     0.824    0.412    0.412  154.580  187.597   65.924 -446.605    2.435  565.842
     0.826    0.413    0.413  155.858  188.691   66.031 -447.689    2.445  567.903
     0.828    0.414    0.414  157.144  189.787   66.137 -448.772    2.455  569.967
     0.830    0.415    0.415  158.435  190.886   66.244 -449.856    2.465  572.033
     0.832    0.416    0.416  159.733  191.987   66.350 -450.940    2.475  574.102
     0.834    0.417    0.417  161.037  193.090   66.457 -452.024    2.485  576.173
     0.836    0.418    0.418  162.348  194.196   66.563 -453.108    2.495  578.247
     0.838    0.419    0.419  163.665  195.305   66.669 -454.192    2.505  580.323
     0.840    0.420    0.420  164.989  196.416   66.775 -455.276    2.515  582.402
     0.842    0.421    0.421  166.319  197.529   66.881 -456.360    2.525  584.483
     0.844    0.422    0.422  167.656  198.644   66.987 -457.444    2.535  586.567
     0.846    0.423    0.423  168.999  199.762   67.093 -458.528    2.545  588.653
     0.848    0.424    0.424  170.349  200.883   67.198 -459.612    2.555  590.742
     0.850    0.425    0.425  171.705  202.006   67.304 -460.696    2.565  592.833
     0.852    0.426    0.426  173.067  203.131   67.409 -461.780    2.575  594.927
     0.854    0.427    0.427  174.437  204.258   67.515 -462.864    2.585  597.023
     0.856    0.428    0.428  175.812  205.388   67.620 -463.948    2.595  599.121
     0.858    0.429    0.429  177.195  206.521   67.725 -465.032    2.605  601.222
     0.860    0.430    0.430  178.584  207.655   67.831 -466.116    2.615  603.326
     0.862    0.431    0.431  179.979  208.792   67.936 -467.200    2.626  605.431
     0.864    0.432    0.432  181.381  209.932   68.041 -468.284    2.636  607.540
     0.866    0.433    0.433  182.790  211.074   68.146 -469.368    2.646  609.650
     0.868    0.434    0.434  184.205  212.218   68.251 -470.452    2.656  611.764
     0.870    0.435    0.435  185.627  213.365   68.355 -471.536    2.666  613.879
     0.872    0.436    0.436  187.056  214.514   68.460 -472.620    2.676  615.997
     0.874    0.437    0.437  188.491  215.665   68.565 -473.704    2.687  618.118
     0.876    0.438    0.438  189.933  216.819   68.669 -474.788    2.697  620.241
     0.878    0.439    0.439  191.382  217.975   68.774 -475.872    2.707  622.366
     0.880    0.440    0.440  192.837  219.133   68.878 -476.956    2.718  624.494
     0.882    0.441    0.441  194.299  220.294   68.983 -478.040    2.728  626.624
     0.884    0.442    0.442  195.768  221.457   69.087 -479.124    2.738  628.756
     0.886    0.443    0.443  197.244  222.623   69.191 -480.208    2.749  630.892
     0.888    0.444    0.444  198.726  223.791   69.295 -481.292    2.759  633.029
     0.890    0.445    0.445  200.215  224.961   69.399 -482.376    2.769  635.169
     0.892    0.446    0.446  201.711  226.133   69.503 -483.460    2.780  637.311
     0.894    0.447    0.447  203.214  227.308   69.607 -484.544    2.790  639.456
     0.896    0.448    0.448  204.723  228.485   69.711 -485.628    2.800  641.602
     0.898    0.449    0.449  206.239  229.665   69.814 -486.712    2.811  643.752
     0.900    0.450    0.450  207.762  230.847   69.918 -487.796    2.821  645.904
     0.902    0.451    0.451  209.292  232.031   70.022 -488.880    2.832  648.058
     0.904    0.452    0.452  210.829  233.218   70.125 -489.964    2.842  650.215
     0.906    0.453    0.453  212.372  234.407   70.228 -491.048    2.853  652.374
     0.908    0.454    0.454  213.923  235.598   70.332 -492.132    2.863  654.535
     0.910    0.455    0.455  215.480  236.791   70.435 -493.216    2.874  656.699
     0.912    0.456    0.456  217.044  237.987   70.538 -494.300    2.884  658.865
     0.914    0.457    0.457  218.615  239.185   70.641 -495.384    2.895  661.033
     0.916    0.458    0.458  220.193  240.386   70.744 -496.468    2.905  663.204
     0.918    0.459    0.459  221.778  241.589   70.847 -497.552    2.916  665.378
     0.920    0.460    0.460  223.370  242.794   70.950 -498.636    2.927  667.553
     0.922    0.461    0.461  224.969  244.001   71.053 -499.720    2.937  669.731
     0.924    0.462    0.462  226.575  245.211   71.156 -500.804    2.948  671.911
     0.926    0.463    0.463  228.187  246.423   71.258 -501.888    2.958  674.094
     0.928    0.464    0.464  229.807  247.637   71.361 -502.972    2.969  676.279
     0.930    0.465    0.465  231.434  248.854   71.463 -504.056    2.980  678.467
     0.932    0.466    0.466  233.068  250.072   71.566 -505.140    2.990  680.656
     0.934    0.467    0.467  234.708  251.294   71.668 -506.224    3.001  682.849
     0.936    0.468    0.468  236.356  252.517   71.770 -507.308    3.012  685.043
     0.938    0.469    0.469  238.011  253.743   71.872 -508.392    3.023  687.240
     0.940    0.470    0.470  239.673  254.971   71.975 -509.476    3.033  689.439
     0.942    0.471    0.471  241.342  256.201   72.077 -510.560    3.044  691.641
     0.944    0.472    0.472  243.018  257.434   72.179 -511.644    3.055  693.844
     0.946    0.473    0.473  244.701  258.669   72.281 -512.728    3.066  696.050
     0.948    0.474    0.474  246.391  259.906   72.382 -513.812    3.076  698.259
     0.950    0.475    0.475  248.088  261.145   72.484 -514.896    3.087  700.470
     0.952    0.476    0.476  249.793  262.387   72.586 -515.980    3.098  702.683
     0.954    0.477    0.477  251.504  263.631   72.687 -517.064    3.109  704.899
     0.956    0.478    0.478  253.223  264.877   72.789 -518.148    3.120  707.116
     0.958    0.479    0.479  254.948  266.126   72.890 -519.232    3.131  709.336
     0.960    0.480    0.480  256.682  267.377   72.992 -520.316    3.142  711.559
     0.962    0.481    0.481  258.422  268.630   73.093 -521.400    3.153  713.784
     0.964    0.482    0.482  260.169  269.885   73.195 -522.484    3.164  716.011
     0.966    0.483    0.483  261.924  271.143   73.296 -523.568    3.174  718.240
     0.968    0.484    0.484  263.685  272.402   73.397 -524.652    3.185  720.472
     0.970    0.485    0.485  265.454  273.664   73.498 -525.736    3.196  722.706
     0.972    0.486    0.486  267.231  274.929   73.599 -526.820    3.207  724.942
     0.974    0.487    0.487  269.014  276.195   73.700 -527.904    3.218  727.181
     0.976    0.488    0.488  270.805  277.464   73.801 -528.988    3.229  729.422
     0.978    0.489    0.489  272.603  278.735   73.901 -530.072    3.240  731.665
     0.980    0.490    0.490  274.408  280.009   74.002 -531.156    3.251  733.911
     0.982    0.491    0.491  276.221  281.284   74.103 -532.240    3.263  736.158
     0.984    0.492    0.492  278.041  282.562   74.203 -533.324    3.274  738.409
     0.986    0.493    0.493  279.868  283.842   74.304 -534.408    3.285  740.661
     0.988    0.494    0.494  281.703  285.124   74.404 -535.492    3.296  742.916
     0.990    0.495    0.495  283.544  286.409   74.505 -536.576    3.307  745.173
     0.992    0.496    0.496  285.394  287.695   74.605 -537.660    3.318  747.432
     0.994    0.497    0.497  287.250  288.984   74.705 -538.744    3.329  749.693
     0.996    0.498    0.498  289.114  290.275   74.805 -539.828    3.340  751.957
     0.998    0.499    0.499  290.986  291.569   74.906 -540.912    3.352  754.223
     1.000    0.500    0.500  292.864  292.864   75.006 -541.996    3.363  756.492
     1.002    0.501    0.501  294.750  294.162   75.106 -543.080    3.374  758.762
     1.004    0.502    0.502  296.644  295.462   75.206 -544.164    3.385  761.035
     1.006    0.503    0.503  298.545  296.764   75.305 -545.248    3.397  763.310
     1.008    0.504    0.504  300.453  298.069   75.405 -546.332    3.408  765.588
     1.010    0.505    0.505  302.369  299.376   75.505 -547.416    3.419  767.867
     1.012    0.506    0.506  304.292  300.684   75.604 -548.500    3.430  770.149
     1.014    0.507    0.507  306.223  301.995   75.704 -549.584    3.442  772.433
     1.016    0.508    0.508  308.162  303.309   75.804 -550.668    3.453  774.720
     1.018    0.509    0.509  310.107  304.624   75.903 -551.752    3.464  777.008
     1.020    0.510    0.510  312.061  305.942   76.002 -552.836    3.476  779.299
     1.022    0.511    0.511  314.021  307.262   76.102 -553.920    3.487  781.593
     1.024    0.512    0.512  315.990  308.584   76.201 -555.004    3.498  783.888
     1.026    0.513    0.513  317.966  309.908   76.300 -556.088    3.510  786.186
     1.028    0.514    0.514  319.949  311.234   76.399 -557.172    3.521  788.486
     1.030    0.515    0.515  321.940  312.563   76.498 -558.256    3.533  790.788
     1.032    0.516    0.516  323.939  313.894   76.597 -559.340    3.544  793.092
     1.034    0.517    0.517  325.945  315.227   76.696 -560.424    3.556  795.399
     1.036    0.518    0.518  327.958  316.562   76.795 -561.508    3.567  797.708
     1.038    0.519    0.519  329.980  317.899   76.894 -562.592    3.578  800.019
     1.040    0.520    0.520  332.009  319.239   76.993 -563.676    3.590  802.332
     1.042    0.521    0.521  334.045  320.581   77.091 -564.760    3.602  804.648
     1.044    0.522    0.522  336.089  321.925   77.190 -565.844    3.613  806.965
     1.046    0.523    0.523  338.141  323.271   77.289 -566.928    3.625  809.285
     1.048    0.524    0.524  340.201  324.619   77.387 -568.012    3.636  811.607
     1.050    0.525    0.525  342.268  325.969   77.485 -569.096    3.648  813.932
     1.052    0.526    0.526  344.343  327.322   77.584 -570.180    3.659  816.258
     1.054    0.527    0.527  346.425  328.677   77.682 -571.264    3.671  818.587
     1.056    0.528    0.528  348.516  330.034   77.780 -572.348    3.683  820.918
     1.058    0.529    0.529  350.613  331.393   77.879 -573.432    3.694  823.252
     1.060    0.530    0.530  352.719  332.754   77.977 -574.516    3.706  825.587
     1.062    0.531    0.531  354.833  334.117   78.075 -575.600    3.717  827.925
     1.064    0.532    0.532  356.954  335.483   78.173 -576.684    3.729  830.265
     1.066    0.533    0.533  359.083  336.851   78.271 -577.768    3.741  832.607
     1.068    0.534    0.534  361.220  338.221   78.368 -578.852    3.753  834.951
     1.070    0.535    0.535  363.364  339.592   78.466 -579.935    3.764  837.297
     1.072    0.536    0.536  365.516  340.967   78.564 -581.019    3.776  839.646
     1.074    0.537    0.537  367.676  342.343   78.662 -582.103    3.788  841.997
     1.076    0.538    0.538  369.844  343.721   78.759 -583.188    3.800  844.350
     1.078    0.539    0.539  372.020  345.102   78.857 -584.271    3.811  846.705
     1.080    0.540    0.540  374.203  346.485   78.954 -585.355    3.823  849.063
     1.082    0.541    0.541  376.395  347.869   79.052 -586.439    3.835  851.422
     1.084    0.542    0.542  378.594  349.256   79.149 -587.523    3.847  853.784
     1.086    0.543    0.543  380.801  350.646   79.247 -588.607    3.859  856.148
     1.088    0.544    0.544  383.016  352.037   79.344 -589.691    3.870  858.514
     1.090    0.545    0.545  385.239  353.430   79.441 -590.775    3.882  860.883
     1.092    0.546    0.546  387.470  354.826   79.538 -591.859    3.894  863.253
     1.094    0.547    0.547  389.708  356.223   79.635 -592.943    3.906  865.625
     1.096    0.548    0.548  391.955  357.623   79.732 -594.027    3.918  868.000
     1.098    0.549    0.549  394.210  359.025   79.829 -595.111    3.930  870.377
     1.100    0.550    0.550  396.472  360.429   79.926 -596.195    3.942  872.756
     1.102    0.551    0.551  398.743  361.835   80.023 -597.279    3.954  875.138
     1.104    0.552    0.552  401.021  363.243   80.120 -598.363    3.966  877.521
     1.106    0.553    0.553  403.307  364.654   80.217 -599.447    3.978  879.907
     1.108    0.554    0.554  405.602  366.066   80.313 -600.531    3.990  882.295
     1.110    0.555    0.555  407.904  367.481   80.410 -601.615    4.002  884.685
     1.112    0.556    0.556  410.214  368.898   80.506 -602.699    4.014  887.077
     1.114    0.557    0.557  412.533  370.317   80.603 -603.783    4.026  889.471
     1.116    0.558    0.558  414.859  371.737   80.699 -604.867    4.038  891.868
     1.118    0.559    0.559  417.193  373.160   80.796 -605.951    4.050  894.266
     1.120    0.560    0.560  419.536  374.586   80.892 -607.035    4.062  896.667
     1.122    0.561    0.561  421.886  376.013   80.988 -608.119    4.074  899.070
     1.124    0.562    0.562  424.245  377.442   81.085 -609.203    4.086  901.475
     1.126    0.563    0.563  426.612  378.874   81.181 -610.287    4.098  903.882
     1.128    0.564    0.564  428.986  380.307   81.277 -611.371    4.110  906.291
     1.130    0.565    0.565  431.369  381.743   81.373 -612.455    4.123  908.703
     1.132    0.566    0.566  433.760  383.180   81.469 -613.539    4.135  911.116
     1.134    0.567    0.567  436.160  384.620   81.565 -614.623    4.147  913.532
     1.136    0.568    0.568  438.567  386.062   81.661 -615.707    4.159  915.950
     1.138    0.569    0.569  440.982  387.506   81.756 -616.791    4.171  918.370
     1.140    0.570    0.570  443.405  388.952   81.852 -617.875    4.184  920.792
     1.142    0.571    0.571  445.837  390.400   81.948 -618.959    4.196  923.216
     1.144    0.572    0.572  448.277  391.851   82.044 -620.043    4.208  925.642
     1.146    0.573    0.573  450.725  393.303   82.139 -621.127    4.220  928.071
     1.148    0.574    0.574  453.181  394.757   82.235 -622.211    4.233  930.501
     1.150    0.575    0.575  455.646  396.214   82.330 -623.295    4.245  932.934
     1.152    0.576    0.576  458.118  397.672   82.426 -624.379    4.257  935.369
     1.154    0.577    0.577  460.599  399.133   82.521 -625.463    4.270  937.805
     1.156    0.578    0.578  463.089  400.596   82.616 -626.547    4.282  940.245
     1.158    0.579    0.579  465.586  402.060   82.712 -627.631    4.294  942.686
     1.160    0.580    0.580  468.092  403.527   82.807 -628.715    4.307  945.129
     1.162    0.581    0.581  470.606  404.996   82.902 -629.799    4.319  947.574
     1.164    0.582    0.582  473.128  406.467   82.997 -630.883    4.331  950.022
     1.166    0.583    0.583  475.658  407.940   83.092 -631.967    4.344  952.471
     1.168    0.584    0.584  478.197  409.415   83.187 -633.051    4.356  954.923
     1.170    0.585    0.585  480.744  410.892   83.282 -634.135    4.369  957.377
     1.172    0.586    0.586  483.299  412.371   83.377 -635.219    4.381  959.833
     1.174    0.587    0.587  485.863  413.853   83.472 -636.303    4.394  962.291
     1.176    0.588    0.588  488.435  415.336   83.566 -637.387    4.406  964.751
     1.178    0.589    0.589  491.016  416.821   83.661 -638.471    4.419  967.213
     1.180    0.590    0.590  493.605  418.309   83.756 -639.555    4.431  969.677
     1.182    0.591    0.591  496.202  419.798   83.850 -640.639    4.444  972.143
     1.184    0.592    0.592  498.807  421.290   83.945 -641.723    4.456  974.612
     1.186    0.593    0.593  501.421  422.783   84.040 -642.807    4.469  977.082
     1.188    0.594    0.594  504.044  424.279   84.134 -643.891    4.481  979.555
     1.190    0.595    0.595  506.674  425.777   84.228 -644.975    4.494  982.030
     1.192    0.596    0.596  509.314  427.277   84.323 -646.059    4.506  984.506
     1.194    0.597    0.597  511.961  428.778   84.417 -647.143    4.519  986.985
     1.196    0.598    0.598  514.617  430.282   84.511 -648.227    4.532  989.466
     1.198    0.599    0.599  517.282  431.788   84.605 -649.311    4.544  991.949
     1.200    0.600    0.600  519.955  433.296   84.700 -650.395    4.557  994.434



 infinite neutron matter

  rho[fm-3] rhon[fm-3] rhop[fm-3] e[MeV]  e/a[MeV]

     0.002    0.002    0.000    0.003    1.448
     0.004    0.004    0.000    0.009    2.143
     0.006    0.006    0.000    0.016    2.676
     0.008    0.008    0.000    0.025    3.122
     0.010    0.010    0.000    0.035    3.512
     0.012    0.012    0.000    0.046    3.862
     0.014    0.014    0.000    0.059    4.182
     0.016    0.016    0.000    0.072    4.478
     0.018    0.018    0.000    0.086    4.755
     0.020    0.020    0.000    0.100    5.017
     0.022    0.022    0.000    0.116    5.265
     0.024    0.024    0.000    0.132    5.502
     0.026    0.026    0.000    0.149    5.730
     0.028    0.028    0.000    0.167    5.949
     0.030    0.030    0.000    0.185    6.161
     0.032    0.032    0.000    0.204    6.366
     0.034    0.034    0.000    0.223    6.566
     0.036    0.036    0.000    0.243    6.761
     0.038    0.038    0.000    0.264    6.951
     0.040    0.040    0.000    0.286    7.138
     0.042    0.042    0.000    0.307    7.320
     0.044    0.044    0.000    0.330    7.500
     0.046    0.046    0.000    0.353    7.676
     0.048    0.048    0.000    0.377    7.850
     0.050    0.050    0.000    0.401    8.022
     0.052    0.052    0.000    0.426    8.191
     0.054    0.054    0.000    0.451    8.359
     0.056    0.056    0.000    0.477    8.525
     0.058    0.058    0.000    0.504    8.689
     0.060    0.060    0.000    0.531    8.852
     0.062    0.062    0.000    0.559    9.013
     0.064    0.064    0.000    0.587    9.173
     0.066    0.066    0.000    0.616    9.333
     0.068    0.068    0.000    0.645    9.491
     0.070    0.070    0.000    0.675    9.648
     0.072    0.072    0.000    0.706    9.805
     0.074    0.074    0.000    0.737    9.961
     0.076    0.076    0.000    0.769   10.116
     0.078    0.078    0.000    0.801   10.271
     0.080    0.080    0.000    0.834   10.425
     0.082    0.082    0.000    0.867   10.579
     0.084    0.084    0.000    0.902   10.733
     0.086    0.086    0.000    0.936   10.886
     0.088    0.088    0.000    0.971   11.039
     0.090    0.090    0.000    1.007   11.192
     0.092    0.092    0.000    1.044   11.344
     0.094    0.094    0.000    1.081   11.497
     0.096    0.096    0.000    1.118   11.649
     0.098    0.098    0.000    1.157   11.802
     0.100    0.100    0.000    1.195   11.954
     0.102    0.102    0.000    1.235   12.106
     0.104    0.104    0.000    1.275   12.259
     0.106    0.106    0.000    1.316   12.411
     0.108    0.108    0.000    1.357   12.564
     0.110    0.110    0.000    1.399   12.716
     0.112    0.112    0.000    1.441   12.869
     0.114    0.114    0.000    1.484   13.022
     0.116    0.116    0.000    1.528   13.175
     0.118    0.118    0.000    1.573   13.328
     0.120    0.120    0.000    1.618   13.482
     0.122    0.122    0.000    1.664   13.636
     0.124    0.124    0.000    1.710   13.790
     0.126    0.126    0.000    1.757   13.944
     0.128    0.128    0.000    1.805   14.099
     0.130    0.130    0.000    1.853   14.254
     0.132    0.132    0.000    1.902   14.409
     0.134    0.134    0.000    1.952   14.564
     0.136    0.136    0.000    2.002   14.720
     0.138    0.138    0.000    2.053   14.876
     0.140    0.140    0.000    2.105   15.033
     0.142    0.142    0.000    2.157   15.190
     0.144    0.144    0.000    2.210   15.347
     0.146    0.146    0.000    2.264   15.505
     0.148    0.148    0.000    2.318   15.663
     0.150    0.150    0.000    2.373   15.821
     0.152    0.152    0.000    2.429   15.980
     0.154    0.154    0.000    2.485   16.140
     0.156    0.156    0.000    2.543   16.299
     0.158    0.158    0.000    2.601   16.459
     0.160    0.160    0.000    2.659   16.620
     0.162    0.162    0.000    2.719   16.781
     0.164    0.164    0.000    2.779   16.943
     0.166    0.166    0.000    2.839   17.104
     0.168    0.168    0.000    2.901   17.267
     0.170    0.170    0.000    2.963   17.430
     0.172    0.172    0.000    3.026   17.593
     0.174    0.174    0.000    3.090   17.757
     0.176    0.176    0.000    3.154   17.921
     0.178    0.178    0.000    3.219   18.086
     0.180    0.180    0.000    3.285   18.251
     0.182    0.182    0.000    3.352   18.417
     0.184    0.184    0.000    3.419   18.583
     0.186    0.186    0.000    3.487   18.749
     0.188    0.188    0.000    3.556   18.917
     0.190    0.190    0.000    3.626   19.084
     0.192    0.192    0.000    3.696   19.253
     0.194    0.194    0.000    3.768   19.421
     0.196    0.196    0.000    3.840   19.590
     0.198    0.198    0.000    3.912   19.760
     0.200    0.200    0.000    3.986   19.930
     0.202    0.202    0.000    4.060   20.101
     0.204    0.204    0.000    4.136   20.272
     0.206    0.206    0.000    4.211   20.444
     0.208    0.208    0.000    4.288   20.616
     0.210    0.210    0.000    4.366   20.789
     0.212    0.212    0.000    4.444   20.962
     0.214    0.214    0.000    4.523   21.136
     0.216    0.216    0.000    4.603   21.310
     0.218    0.218    0.000    4.684   21.485
     0.220    0.220    0.000    4.765   21.661
     0.222    0.222    0.000    4.848   21.836
     0.224    0.224    0.000    4.931   22.013
     0.226    0.226    0.000    5.015   22.190
     0.228    0.228    0.000    5.100   22.367
     0.230    0.230    0.000    5.185   22.545
     0.232    0.232    0.000    5.272   22.724
     0.234    0.234    0.000    5.359   22.903
     0.236    0.236    0.000    5.447   23.082
     0.238    0.238    0.000    5.536   23.263
     0.240    0.240    0.000    5.626   23.443
     0.242    0.242    0.000    5.717   23.624
     0.244    0.244    0.000    5.809   23.806
     0.246    0.246    0.000    5.901   23.988
     0.248    0.248    0.000    5.994   24.171
     0.250    0.250    0.000    6.089   24.354
     0.252    0.252    0.000    6.184   24.538
     0.254    0.254    0.000    6.280   24.723
     0.256    0.256    0.000    6.376   24.908
     0.258    0.258    0.000    6.474   25.093
     0.260    0.260    0.000    6.573   25.279
     0.262    0.262    0.000    6.672   25.465
     0.264    0.264    0.000    6.772   25.652
     0.266    0.266    0.000    6.873   25.840
     0.268    0.268    0.000    6.976   26.028
     0.270    0.270    0.000    7.078   26.217
     0.272    0.272    0.000    7.182   26.406
     0.274    0.274    0.000    7.287   26.595
     0.276    0.276    0.000    7.393   26.786
     0.278    0.278    0.000    7.499   26.976
     0.280    0.280    0.000    7.607   27.168
     0.282    0.282    0.000    7.715   27.359
     0.284    0.284    0.000    7.825   27.552
     0.286    0.286    0.000    7.935   27.745
     0.288    0.288    0.000    8.046   27.938
     0.290    0.290    0.000    8.158   28.132
     0.292    0.292    0.000    8.271   28.326
     0.294    0.294    0.000    8.385   28.521
     0.296    0.296    0.000    8.500   28.717
     0.298    0.298    0.000    8.616   28.913
     0.300    0.300    0.000    8.733   29.109
     0.302    0.302    0.000    8.850   29.306
     0.304    0.304    0.000    8.969   29.504
     0.306    0.306    0.000    9.089   29.702
     0.308    0.308    0.000    9.209   29.900
     0.310    0.310    0.000    9.331   30.099
     0.312    0.312    0.000    9.453   30.299
     0.314    0.314    0.000    9.577   30.499
     0.316    0.316    0.000    9.701   30.700
     0.318    0.318    0.000    9.827   30.901
     0.320    0.320    0.000    9.953   31.103
     0.322    0.322    0.000   10.080   31.305
     0.324    0.324    0.000   10.209   31.508
     0.326    0.326    0.000   10.338   31.711
     0.328    0.328    0.000   10.468   31.915
     0.330    0.330    0.000   10.599   32.119
     0.332    0.332    0.000   10.732   32.324
     0.334    0.334    0.000   10.865   32.529
     0.336    0.336    0.000   10.999   32.735
     0.338    0.338    0.000   11.134   32.941
     0.340    0.340    0.000   11.270   33.148
     0.342    0.342    0.000   11.408   33.355
     0.344    0.344    0.000   11.546   33.563
     0.346    0.346    0.000   11.685   33.772
     0.348    0.348    0.000   11.825   33.980
     0.350    0.350    0.000   11.966   34.190
     0.352    0.352    0.000   12.109   34.400
     0.354    0.354    0.000   12.252   34.610
     0.356    0.356    0.000   12.396   34.821
     0.358    0.358    0.000   12.542   35.032
     0.360    0.360    0.000   12.688   35.244
     0.362    0.362    0.000   12.835   35.457
     0.364    0.364    0.000   12.984   35.669
     0.366    0.366    0.000   13.133   35.883
     0.368    0.368    0.000   13.284   36.097
     0.370    0.370    0.000   13.435   36.311
     0.372    0.372    0.000   13.588   36.526
     0.374    0.374    0.000   13.741   36.741
     0.376    0.376    0.000   13.896   36.957
     0.378    0.378    0.000   14.051   37.173
     0.380    0.380    0.000   14.208   37.390
     0.382    0.382    0.000   14.366   37.607
     0.384    0.384    0.000   14.525   37.825
     0.386    0.386    0.000   14.685   38.043
     0.388    0.388    0.000   14.846   38.262
     0.390    0.390    0.000   15.008   38.481
     0.392    0.392    0.000   15.171   38.701
     0.394    0.394    0.000   15.335   38.921
     0.396    0.396    0.000   15.500   39.142
     0.398    0.398    0.000   15.667   39.363
     0.400    0.400    0.000   15.834   39.585
     0.402    0.402    0.000   16.002   39.807
     0.404    0.404    0.000   16.172   40.030
     0.406    0.406    0.000   16.343   40.253
     0.408    0.408    0.000   16.514   40.476
     0.410    0.410    0.000   16.687   40.700
     0.412    0.412    0.000   16.861   40.925
     0.414    0.414    0.000   17.036   41.150
     0.416    0.416    0.000   17.212   41.375
     0.418    0.418    0.000   17.389   41.601
     0.420    0.420    0.000   17.568   41.828
     0.422    0.422    0.000   17.747   42.055
     0.424    0.424    0.000   17.928   42.282
     0.426    0.426    0.000   18.109   42.510
     0.428    0.428    0.000   18.292   42.738
     0.430    0.430    0.000   18.476   42.967
     0.432    0.432    0.000   18.661   43.196
     0.434    0.434    0.000   18.847   43.426
     0.436    0.436    0.000   19.034   43.656
     0.438    0.438    0.000   19.222   43.887
     0.440    0.440    0.000   19.412   44.118
     0.442    0.442    0.000   19.602   44.349
     0.444    0.444    0.000   19.794   44.581
     0.446    0.446    0.000   19.987   44.814
     0.448    0.448    0.000   20.181   45.047
     0.450    0.450    0.000   20.376   45.280
     0.452    0.452    0.000   20.572   45.514
     0.454    0.454    0.000   20.770   45.748
     0.456    0.456    0.000   20.968   45.983
     0.458    0.458    0.000   21.168   46.218
     0.460    0.460    0.000   21.369   46.454
     0.462    0.462    0.000   21.571   46.690
     0.464    0.464    0.000   21.774   46.927
     0.466    0.466    0.000   21.978   47.164
     0.468    0.468    0.000   22.184   47.401
     0.470    0.470    0.000   22.390   47.639
     0.472    0.472    0.000   22.598   47.877
     0.474    0.474    0.000   22.807   48.116
     0.476    0.476    0.000   23.017   48.355
     0.478    0.478    0.000   23.229   48.595
     0.480    0.480    0.000   23.441   48.835
     0.482    0.482    0.000   23.655   49.076
     0.484    0.484    0.000   23.869   49.317
     0.486    0.486    0.000   24.085   49.558
     0.488    0.488    0.000   24.303   49.800
     0.490    0.490    0.000   24.521   50.043
     0.492    0.492    0.000   24.740   50.285
     0.494    0.494    0.000   24.961   50.529
     0.496    0.496    0.000   25.183   50.772
     0.498    0.498    0.000   25.406   51.016
     0.500    0.500    0.000   25.631   51.261
     0.502    0.502    0.000   25.856   51.506
     0.504    0.504    0.000   26.083   51.751
     0.506    0.506    0.000   26.311   51.997
     0.508    0.508    0.000   26.540   52.243
     0.510    0.510    0.000   26.770   52.490
     0.512    0.512    0.000   27.002   52.737
     0.514    0.514    0.000   27.234   52.985
     0.516    0.516    0.000   27.468   53.233
     0.518    0.518    0.000   27.703   53.481
     0.520    0.520    0.000   27.940   53.730
     0.522    0.522    0.000   28.177   53.979
     0.524    0.524    0.000   28.416   54.229
     0.526    0.526    0.000   28.656   54.479
     0.528    0.528    0.000   28.897   54.730
     0.530    0.530    0.000   29.140   54.981
     0.532    0.532    0.000   29.383   55.232
     0.534    0.534    0.000   29.628   55.484
     0.536    0.536    0.000   29.874   55.736
     0.538    0.538    0.000   30.122   55.989
     0.540    0.540    0.000   30.371   56.242
     0.542    0.542    0.000   30.620   56.495
     0.544    0.544    0.000   30.871   56.749
     0.546    0.546    0.000   31.124   57.003
     0.548    0.548    0.000   31.377   57.258
     0.550    0.550    0.000   31.632   57.513
     0.552    0.552    0.000   31.888   57.769
     0.554    0.554    0.000   32.146   58.025
     0.556    0.556    0.000   32.404   58.281
     0.558    0.558    0.000   32.664   58.538
     0.560    0.560    0.000   32.925   58.795
     0.562    0.562    0.000   33.188   59.052
     0.564    0.564    0.000   33.451   59.310
     0.566    0.566    0.000   33.716   59.569
     0.568    0.568    0.000   33.982   59.828
     0.570    0.570    0.000   34.250   60.087
     0.572    0.572    0.000   34.518   60.347
     0.574    0.574    0.000   34.788   60.607
     0.576    0.576    0.000   35.059   60.867
     0.578    0.578    0.000   35.332   61.128
     0.580    0.580    0.000   35.606   61.389
     0.582    0.582    0.000   35.881   61.651
     0.584    0.584    0.000   36.157   61.913
     0.586    0.586    0.000   36.435   62.175
     0.588    0.588    0.000   36.713   62.438
     0.590    0.590    0.000   36.994   62.701
     0.592    0.592    0.000   37.275   62.965
     0.594    0.594    0.000   37.558   63.229
     0.596    0.596    0.000   37.842   63.493
     0.598    0.598    0.000   38.127   63.758
     0.600    0.600    0.000   38.414   64.023
     0.602    0.602    0.000   38.702   64.289
     0.604    0.604    0.000   38.991   64.555
     0.606    0.606    0.000   39.281   64.821
     0.608    0.608    0.000   39.573   65.088
     0.610    0.610    0.000   39.866   65.355
     0.612    0.612    0.000   40.161   65.622
     0.614    0.614    0.000   40.457   65.890
     0.616    0.616    0.000   40.754   66.158
     0.618    0.618    0.000   41.052   66.427
     0.620    0.620    0.000   41.352   66.696
     0.622    0.622    0.000   41.653   66.966
     0.624    0.624    0.000   41.955   67.235
     0.626    0.626    0.000   42.259   67.506
     0.628    0.628    0.000   42.563   67.776
     0.630    0.630    0.000   42.870   68.047
     0.632    0.632    0.000   43.177   68.319
     0.634    0.634    0.000   43.486   68.590
     0.636    0.636    0.000   43.797   68.862
     0.638    0.638    0.000   44.108   69.135
     0.640    0.640    0.000   44.421   69.408
     0.642    0.642    0.000   44.735   69.681
     0.644    0.644    0.000   45.051   69.955
     0.646    0.646    0.000   45.368   70.229
     0.648    0.648    0.000   45.686   70.503
     0.650    0.650    0.000   46.006   70.778
     0.652    0.652    0.000   46.326   71.053
     0.654    0.654    0.000   46.649   71.328
     0.656    0.656    0.000   46.972   71.604
     0.658    0.658    0.000   47.297   71.880
     0.660    0.660    0.000   47.624   72.157
     0.662    0.662    0.000   47.951   72.434
     0.664    0.664    0.000   48.280   72.711
     0.666    0.666    0.000   48.611   72.989
     0.668    0.668    0.000   48.942   73.267
     0.670    0.670    0.000   49.275   73.545
     0.672    0.672    0.000   49.610   73.824
     0.674    0.674    0.000   49.946   74.104
     0.676    0.676    0.000   50.283   74.383
     0.678    0.678    0.000   50.621   74.663
     0.680    0.680    0.000   50.961   74.943
     0.682    0.682    0.000   51.303   75.224
     0.684    0.684    0.000   51.645   75.505
     0.686    0.686    0.000   51.989   75.786
     0.688    0.688    0.000   52.335   76.068
     0.690    0.690    0.000   52.681   76.350
     0.692    0.692    0.000   53.030   76.632
     0.694    0.694    0.000   53.379   76.915
     0.696    0.696    0.000   53.730   77.198
     0.698    0.698    0.000   54.082   77.482
     0.700    0.700    0.000   54.436   77.765
     0.702    0.702    0.000   54.791   78.050
     0.704    0.704    0.000   55.147   78.334
     0.706    0.706    0.000   55.505   78.619
     0.708    0.708    0.000   55.864   78.904
     0.710    0.710    0.000   56.225   79.190
     0.712    0.712    0.000   56.587   79.476
     0.714    0.714    0.000   56.950   79.762
     0.716    0.716    0.000   57.315   80.049
     0.718    0.718    0.000   57.681   80.336
     0.720    0.720    0.000   58.049   80.623
     0.722    0.722    0.000   58.418   80.911
     0.724    0.724    0.000   58.788   81.199
     0.726    0.726    0.000   59.160   81.487
     0.728    0.728    0.000   59.533   81.776
     0.730    0.730    0.000   59.908   82.065
     0.732    0.732    0.000   60.284   82.355
     0.734    0.734    0.000   60.661   82.644
     0.736    0.736    0.000   61.040   82.935
     0.738    0.738    0.000   61.420   83.225
     0.740    0.740    0.000   61.802   83.516
     0.742    0.742    0.000   62.185   83.807
     0.744    0.744    0.000   62.569   84.098
     0.746    0.746    0.000   62.955   84.390
     0.748    0.748    0.000   63.343   84.683
     0.750    0.750    0.000   63.731   84.975
     0.752    0.752    0.000   64.121   85.268
     0.754    0.754    0.000   64.513   85.561
     0.756    0.756    0.000   64.906   85.855
     0.758    0.758    0.000   65.301   86.148
     0.760    0.760    0.000   65.696   86.443
     0.762    0.762    0.000   66.094   86.737
     0.764    0.764    0.000   66.492   87.032
     0.766    0.766    0.000   66.893   87.327
     0.768    0.768    0.000   67.294   87.623
     0.770    0.770    0.000   67.697   87.919
     0.772    0.772    0.000   68.102   88.215
     0.774    0.774    0.000   68.508   88.511
     0.776    0.776    0.000   68.915   88.808
     0.778    0.778    0.000   69.324   89.105
     0.780    0.780    0.000   69.734   89.403
     0.782    0.782    0.000   70.146   89.701
     0.784    0.784    0.000   70.559   89.999
     0.786    0.786    0.000   70.974   90.297
     0.788    0.788    0.000   71.390   90.596
     0.790    0.790    0.000   71.807   90.895
     0.792    0.792    0.000   72.226   91.195
     0.794    0.794    0.000   72.647   91.495
     0.796    0.796    0.000   73.069   91.795
     0.798    0.798    0.000   73.492   92.095
     0.800    0.800    0.000   73.917   92.396
     0.802    0.802    0.000   74.343   92.697
     0.804    0.804    0.000   74.771   92.999
     0.806    0.806    0.000   75.200   93.300
     0.808    0.808    0.000   75.631   93.602
     0.810    0.810    0.000   76.063   93.905
     0.812    0.812    0.000   76.497   94.208
     0.814    0.814    0.000   76.932   94.511
     0.816    0.816    0.000   77.368   94.814
     0.818    0.818    0.000   77.806   95.118
     0.820    0.820    0.000   78.246   95.422
     0.822    0.822    0.000   78.687   95.726
     0.824    0.824    0.000   79.129   96.030
     0.826    0.826    0.000   79.573   96.335
     0.828    0.828    0.000   80.019   96.641
     0.830    0.830    0.000   80.465   96.946
     0.832    0.832    0.000   80.914   97.252
     0.834    0.834    0.000   81.364   97.558
     0.836    0.836    0.000   81.815   97.865
     0.838    0.838    0.000   82.268   98.172
     0.840    0.840    0.000   82.722   98.479
     0.842    0.842    0.000   83.178   98.786
     0.844    0.844    0.000   83.635   99.094
     0.846    0.846    0.000   84.094   99.402
     0.848    0.848    0.000   84.554   99.710
     0.850    0.850    0.000   85.016  100.019
     0.852    0.852    0.000   85.479  100.328
     0.854    0.854    0.000   85.944  100.637
     0.856    0.856    0.000   86.410  100.947
     0.858    0.858    0.000   86.878  101.257
     0.860    0.860    0.000   87.348  101.567
     0.862    0.862    0.000   87.818  101.877
     0.864    0.864    0.000   88.291  102.188
     0.866    0.866    0.000   88.765  102.500
     0.868    0.868    0.000   89.240  102.811
     0.870    0.870    0.000   89.717  103.123
     0.872    0.872    0.000   90.195  103.435
     0.874    0.874    0.000   90.675  103.747
     0.876    0.876    0.000   91.156  104.060
     0.878    0.878    0.000   91.639  104.373
     0.880    0.880    0.000   92.124  104.686
     0.882    0.882    0.000   92.609  104.999
     0.884    0.884    0.000   93.097  105.313
     0.886    0.886    0.000   93.586  105.627
     0.888    0.888    0.000   94.076  105.942
     0.890    0.890    0.000   94.568  106.257
     0.892    0.892    0.000   95.062  106.572
     0.894    0.894    0.000   95.557  106.887
     0.896    0.896    0.000   96.054  107.203
     0.898    0.898    0.000   96.552  107.519
     0.900    0.900    0.000   97.051  107.835
     0.902    0.902    0.000   97.552  108.151
     0.904    0.904    0.000   98.055  108.468
     0.906    0.906    0.000   98.559  108.785
     0.908    0.908    0.000   99.065  109.103
     0.910    0.910    0.000   99.572  109.420
     0.912    0.912    0.000  100.081  109.738
     0.914    0.914    0.000  100.592  110.057
     0.916    0.916    0.000  101.104  110.375
     0.918    0.918    0.000  101.617  110.694
     0.920    0.920    0.000  102.132  111.013
     0.922    0.922    0.000  102.649  111.333
     0.924    0.924    0.000  103.167  111.652
     0.926    0.926    0.000  103.686  111.972
     0.928    0.928    0.000  104.208  112.293
     0.930    0.930    0.000  104.730  112.613
     0.932    0.932    0.000  105.255  112.934
     0.934    0.934    0.000  105.780  113.255
     0.936    0.936    0.000  106.308  113.577
     0.938    0.938    0.000  106.837  113.898
     0.940    0.940    0.000  107.367  114.220
     0.942    0.942    0.000  107.899  114.543
     0.944    0.944    0.000  108.433  114.865
     0.946    0.946    0.000  108.968  115.188
     0.948    0.948    0.000  109.505  115.511
     0.950    0.950    0.000  110.043  115.835
     0.952    0.952    0.000  110.583  116.159
     0.954    0.954    0.000  111.124  116.483
     0.956    0.956    0.000  111.667  116.807
     0.958    0.958    0.000  112.212  117.131
     0.960    0.960    0.000  112.758  117.456
     0.962    0.962    0.000  113.306  117.781
     0.964    0.964    0.000  113.855  118.107
     0.966    0.966    0.000  114.406  118.432
     0.968    0.968    0.000  114.958  118.758
     0.970    0.970    0.000  115.512  119.085
     0.972    0.972    0.000  116.068  119.411
     0.974    0.974    0.000  116.625  119.738
     0.976    0.976    0.000  117.184  120.065
     0.978    0.978    0.000  117.744  120.392
     0.980    0.980    0.000  118.306  120.720
     0.982    0.982    0.000  118.869  121.048
     0.984    0.984    0.000  119.434  121.376
     0.986    0.986    0.000  120.001  121.705
     0.988    0.988    0.000  120.569  122.033
     0.990    0.990    0.000  121.139  122.362
     0.992    0.992    0.000  121.710  122.692
     0.994    0.994    0.000  122.283  123.021
     0.996    0.996    0.000  122.858  123.351
     0.998    0.998    0.000  123.434  123.681
     1.000    1.000    0.000  124.011  124.011
     1.002    1.002    0.000  124.591  124.342
     1.004    1.004    0.000  125.172  124.673
     1.006    1.006    0.000  125.754  125.004
     1.008    1.008    0.000  126.338  125.336
     1.010    1.010    0.000  126.924  125.667
     1.012    1.012    0.000  127.511  125.999
     1.014    1.014    0.000  128.100  126.331
     1.016    1.016    0.000  128.691  126.664
     1.018    1.018    0.000  129.283  126.997
     1.020    1.020    0.000  129.876  127.330
     1.022    1.022    0.000  130.472  127.663
     1.024    1.024    0.000  131.069  127.997
     1.026    1.026    0.000  131.667  128.331
     1.028    1.028    0.000  132.267  128.665
     1.030    1.030    0.000  132.869  128.999
     1.032    1.032    0.000  133.472  129.334
     1.034    1.034    0.000  134.077  129.669
     1.036    1.036    0.000  134.684  130.004
     1.038    1.038    0.000  135.292  130.339
     1.040    1.040    0.000  135.902  130.675
     1.042    1.042    0.000  136.513  131.011
     1.044    1.044    0.000  137.126  131.347
     1.046    1.046    0.000  137.741  131.684
     1.048    1.048    0.000  138.357  132.020
     1.050    1.050    0.000  138.975  132.357
     1.052    1.052    0.000  139.595  132.694
     1.054    1.054    0.000  140.216  133.032
     1.056    1.056    0.000  140.838  133.370
     1.058    1.058    0.000  141.463  133.708
     1.060    1.060    0.000  142.089  134.046
     1.062    1.062    0.000  142.716  134.385
     1.064    1.064    0.000  143.346  134.723
     1.066    1.066    0.000  143.977  135.062
     1.068    1.068    0.000  144.609  135.402
     1.070    1.070    0.000  145.243  135.741
     1.072    1.072    0.000  145.879  136.081
     1.074    1.074    0.000  146.516  136.421
     1.076    1.076    0.000  147.155  136.762
     1.078    1.078    0.000  147.796  137.102
     1.080    1.080    0.000  148.438  137.443
     1.082    1.082    0.000  149.082  137.784
     1.084    1.084    0.000  149.728  138.125
     1.086    1.086    0.000  150.375  138.467
     1.088    1.088    0.000  151.024  138.809
     1.090    1.090    0.000  151.675  139.151
     1.092    1.092    0.000  152.327  139.493
     1.094    1.094    0.000  152.980  139.836
     1.096    1.096    0.000  153.636  140.179
     1.098    1.098    0.000  154.293  140.522
     1.100    1.100    0.000  154.952  140.865
     1.102    1.102    0.000  155.612  141.209
     1.104    1.104    0.000  156.274  141.553
     1.106    1.106    0.000  156.938  141.897
     1.108    1.108    0.000  157.603  142.241
     1.110    1.110    0.000  158.270  142.586
     1.112    1.112    0.000  158.939  142.930
     1.114    1.114    0.000  159.609  143.276
     1.116    1.116    0.000  160.281  143.621
     1.118    1.118    0.000  160.955  143.967
     1.120    1.120    0.000  161.630  144.312
     1.122    1.122    0.000  162.307  144.658
     1.124    1.124    0.000  162.985  145.005
     1.126    1.126    0.000  163.666  145.351
     1.128    1.128    0.000  164.347  145.698
     1.130    1.130    0.000  165.031  146.045
     1.132    1.132    0.000  165.716  146.392
     1.134    1.134    0.000  166.403  146.740
     1.136    1.136    0.000  167.092  147.088
     1.138    1.138    0.000  167.782  147.436
     1.140    1.140    0.000  168.474  147.784
     1.142    1.142    0.000  169.167  148.133
     1.144    1.144    0.000  169.862  148.481
     1.146    1.146    0.000  170.559  148.830
     1.148    1.148    0.000  171.258  149.179
     1.150    1.150    0.000  171.958  149.529
     1.152    1.152    0.000  172.660  149.879
     1.154    1.154    0.000  173.363  150.228
     1.156    1.156    0.000  174.069  150.579
     1.158    1.158    0.000  174.776  150.929
     1.160    1.160    0.000  175.484  151.280
     1.162    1.162    0.000  176.195  151.631
     1.164    1.164    0.000  176.907  151.982
     1.166    1.166    0.000  177.620  152.333
     1.168    1.168    0.000  178.336  152.685
     1.170    1.170    0.000  179.053  153.037
     1.172    1.172    0.000  179.771  153.388
     1.174    1.174    0.000  180.492  153.741
     1.176    1.176    0.000  181.214  154.093
     1.178    1.178    0.000  181.937  154.446
     1.180    1.180    0.000  182.663  154.799
     1.182    1.182    0.000  183.390  155.152
     1.184    1.184    0.000  184.119  155.506
     1.186    1.186    0.000  184.849  155.860
     1.188    1.188    0.000  185.582  156.214
     1.190    1.190    0.000  186.316  156.568
     1.192    1.192    0.000  187.051  156.922
     1.194    1.194    0.000  187.788  157.277
     1.196    1.196    0.000  188.527  157.632
     1.198    1.198    0.000  189.268  157.987
     1.200    1.200    0.000  190.010  158.342



 effective mass

  rho[fm-3] (m*/m)neutr  (m*/m)matter

     0.002    1.004    1.000    1.236
     0.004    1.008    1.000    2.168
     0.006    1.013    1.000    3.016
     0.008    1.017    1.000    3.811
     0.010    1.021    1.000    4.568
     0.012    1.025    0.999    5.293
     0.014    1.030    0.999    5.991
     0.016    1.034    0.999    6.666
     0.018    1.039    0.999    7.321
     0.020    1.043    0.999    7.957
     0.022    1.048    0.999    8.575
     0.024    1.052    0.999    9.178
     0.026    1.057    0.999    9.765
     0.028    1.061    0.999   10.338
     0.030    1.066    0.999   10.898
     0.032    1.071    0.999   11.445
     0.034    1.075    0.998   11.980
     0.036    1.080    0.998   12.503
     0.038    1.085    0.998   13.015
     0.040    1.090    0.998   13.516
     0.042    1.095    0.998   14.007
     0.044    1.100    0.998   14.487
     0.046    1.105    0.998   14.958
     0.048    1.110    0.998   15.419
     0.050    1.115    0.998   15.870
     0.052    1.120    0.998   16.313
     0.054    1.125    0.998   16.746
     0.056    1.131    0.997   17.171
     0.058    1.136    0.997   17.588
     0.060    1.141    0.997   17.996
     0.062    1.147    0.997   18.396
     0.064    1.152    0.997   18.788
     0.066    1.158    0.997   19.172
     0.068    1.163    0.997   19.548
     0.070    1.169    0.997   19.917
     0.072    1.174    0.997   20.278
     0.074    1.180    0.997   20.632
     0.076    1.186    0.997   20.979
     0.078    1.192    0.997   21.319
     0.080    1.198    0.996   21.652
     0.082    1.204    0.996   21.977
     0.084    1.210    0.996   22.296
     0.086    1.216    0.996   22.609
     0.088    1.222    0.996   22.914
     0.090    1.228    0.996   23.213
     0.092    1.234    0.996   23.506
     0.094    1.240    0.996   23.792
     0.096    1.247    0.996   24.072
     0.098    1.253    0.996   24.346
     0.100    1.260    0.996   24.613
     0.102    1.266    0.995   24.875
     0.104    1.273    0.995   25.130
     0.106    1.280    0.995   25.379
     0.108    1.287    0.995   25.623
     0.110    1.293    0.995   25.860
     0.112    1.300    0.995   26.092
     0.114    1.307    0.995   26.318
     0.116    1.314    0.995   26.538
     0.118    1.322    0.995   26.753
     0.120    1.329    0.995   26.961
     0.122    1.336    0.995   27.165
     0.124    1.344    0.994   27.363
     0.126    1.351    0.994   27.555
     0.128    1.359    0.994   27.742
     0.130    1.366    0.994   27.924
     0.132    1.374    0.994   28.100
     0.134    1.382    0.994   28.271
     0.136    1.390    0.994   28.437
     0.138    1.398    0.994   28.597
     0.140    1.406    0.994   28.753
     0.142    1.414    0.994   28.903
     0.144    1.422    0.994   29.048
     0.146    1.431    0.993   29.188
     0.148    1.439    0.993   29.323
     0.150    1.448    0.993   29.453
     0.152    1.457    0.993   29.578
     0.154    1.465    0.993   29.698
     0.156    1.474    0.993   29.813
     0.158    1.483    0.993   29.924
     0.160    1.493    0.993   30.029
     0.162    1.502    0.993   30.130
     0.164    1.511    0.993   30.226
     0.166    1.521    0.993   30.317
     0.168    1.530    0.993   30.403
     0.170    1.540    0.992   30.485
     0.172    1.550    0.992   30.562
     0.174    1.560    0.992   30.634
     0.176    1.570    0.992   30.702
     0.178    1.580    0.992   30.765
     0.180    1.590    0.992   30.824
     0.182    1.601    0.992   30.878
     0.184    1.612    0.992   30.928
     0.186    1.622    0.992   30.973
     0.188    1.633    0.992   31.014
     0.190    1.644    0.992   31.050
     0.192    1.656    0.991   31.081
     0.194    1.667    0.991   31.109
     0.196    1.679    0.991   31.132
     0.198    1.690    0.991   31.150
     0.200    1.702    0.991   31.165
     0.202    1.714    0.991   31.175
     0.204    1.726    0.991   31.180
     0.206    1.739    0.991   31.182
     0.208    1.751    0.991   31.179
     0.210    1.764    0.991   31.172
     0.212    1.777    0.991   31.160
     0.214    1.790    0.990   31.145
     0.216    1.803    0.990   31.125
     0.218    1.817    0.990   31.101
     0.220    1.831    0.990   31.073
     0.222    1.845    0.990   31.041
     0.224    1.859    0.990   31.005
     0.226    1.873    0.990   30.964
     0.228    1.888    0.990   30.920
     0.230    1.902    0.990   30.871
     0.232    1.918    0.990   30.819
     0.234    1.933    0.990   30.762
     0.236    1.948    0.990   30.702
     0.238    1.964    0.989   30.637
     0.240    1.980    0.989   30.569
     0.242    1.996    0.989   30.496
     0.244    2.013    0.989   30.420
     0.246    2.030    0.989   30.339
     0.248    2.047    0.989   30.255
     0.250    2.064    0.989   30.167
     0.252    2.082    0.989   30.075
     0.254    2.100    0.989   29.979
     0.256    2.119    0.989   29.879
     0.258    2.137    0.989   29.775
     0.260    2.156    0.988   29.668
     0.262    2.176    0.988   29.556
     0.264    2.195    0.988   29.441
     0.266    2.215    0.988   29.322
     0.268    2.236    0.988   29.200
     0.270    2.257    0.988   29.073
     0.272    2.278    0.988   28.943
     0.274    2.299    0.988   28.809
     0.276    2.321    0.988   28.671
     0.278    2.344    0.988   28.530
     0.280    2.367    0.988   28.385
     0.282    2.390    0.988   28.236
     0.284    2.414    0.987   28.084
     0.286    2.438    0.987   27.927
     0.288    2.463    0.987   27.768
     0.290    2.488    0.987   27.604
     0.292    2.514    0.987   27.437
     0.294    2.540    0.987   27.266
     0.296    2.567    0.987   27.092
     0.298    2.595    0.987   26.914
     0.300    2.623    0.987   26.733
     0.302    2.652    0.987   26.548
     0.304    2.681    0.987   26.359
     0.306    2.711    0.986   26.167
     0.308    2.742    0.986   25.971
     0.310    2.773    0.986   25.772
     0.312    2.805    0.986   25.569
     0.314    2.838    0.986   25.363
     0.316    2.871    0.986   25.153
     0.318    2.906    0.986   24.940
     0.320    2.941    0.986   24.723
     0.322    2.977    0.986   24.502
     0.324    3.014    0.986   24.279
     0.326    3.052    0.986   24.052
     0.328    3.091    0.986   23.821
     0.330    3.131    0.985   23.587
     0.332    3.172    0.985   23.349
     0.334    3.214    0.985   23.108
     0.336    3.257    0.985   22.864
     0.338    3.302    0.985   22.616
     0.340    3.347    0.985   22.365
     0.342    3.394    0.985   22.111
     0.344    3.442    0.985   21.853
     0.346    3.492    0.985   21.592
     0.348    3.543    0.985   21.327
     0.350    3.595    0.985   21.059
     0.352    3.649    0.984   20.788
     0.354    3.705    0.984   20.513
     0.356    3.763    0.984   20.235
     0.358    3.822    0.984   19.954
     0.360    3.883    0.984   19.670
     0.362    3.947    0.984   19.382
     0.364    4.012    0.984   19.091
     0.366    4.079    0.984   18.796
     0.368    4.149    0.984   18.499
     0.370    4.221    0.984   18.198
     0.372    4.296    0.984   17.894
     0.374    4.374    0.984   17.586
     0.376    4.454    0.983   17.275
     0.378    4.537    0.983   16.962
     0.380    4.624    0.983   16.644
     0.382    4.714    0.983   16.324
     0.384    4.807    0.983   16.001
     0.386    4.905    0.983   15.674
     0.388    5.006    0.983   15.344
     0.390    5.111    0.983   15.011
     0.392    5.222    0.983   14.674
     0.394    5.336    0.983   14.335
     0.396    5.457    0.983   13.992
     0.398    5.582    0.982   13.646
     0.400    5.714    0.982   13.297
     0.402    5.852    0.982   12.945
     0.404    5.996    0.982   12.590
     0.406    6.149    0.982   12.232
     0.408    6.309    0.982   11.870
     0.410    6.477    0.982   11.505
     0.412    6.655    0.982   11.138
     0.414    6.843    0.982   10.767
     0.416    7.042    0.982   10.393
     0.418    7.252    0.982   10.016
     0.420    7.476    0.982    9.636
     0.422    7.714    0.981    9.252
     0.424    7.967    0.981    8.866
     0.426    8.238    0.981    8.477
     0.428    8.528    0.981    8.084
     0.430    8.839    0.981    7.689
     0.432    9.173    0.981    7.290
     0.434    9.534    0.981    6.889
     0.436    9.924    0.981    6.484
     0.438   10.348    0.981    6.077
     0.440   10.809    0.981    5.666
     0.442   11.313    0.981    5.252
     0.444   11.867    0.980    4.836
     0.446   12.478    0.980    4.416
     0.448   13.155    0.980    3.993
     0.450   13.910    0.980    3.568
     0.452   14.757    0.980    3.139
     0.454   15.713    0.980    2.707
     0.456   16.802    0.980    2.273
     0.458   18.053    0.980    1.835
     0.460   19.506    0.980    1.395
     0.462   21.213    0.980    0.951
     0.464   23.247    0.980    0.505
     0.466   25.713    0.980    0.055
     0.468   28.763    0.979   -0.397
     0.470   32.636    0.979   -0.852
     0.472   37.712    0.979   -1.311
     0.474   44.660    0.979   -1.772
     0.476   54.745    0.979   -2.236
     0.478   70.713    0.979   -2.703
     0.480   99.832    0.979   -3.173
     0.482  169.726    0.979   -3.646
     0.484  565.964    0.979   -4.121
     0.486 -424.092    0.979   -4.600
     0.488 -154.251    0.979   -5.081
     0.490  -94.269    0.979   -5.566
     0.492  -67.876    0.978   -6.053
     0.494  -53.029    0.978   -6.543
     0.496  -43.511    0.978   -7.036
     0.498  -36.890    0.978   -7.532
     0.500  -32.018    0.978   -8.031
     0.502  -28.283    0.978   -8.532
     0.504  -25.328    0.978   -9.036
     0.506  -22.932    0.978   -9.544
     0.508  -20.950    0.978  -10.054
     0.510  -19.284    0.978  -10.567
     0.512  -17.863    0.978  -11.083
     0.514  -16.637    0.977  -11.601
     0.516  -15.569    0.977  -12.122
     0.518  -14.629    0.977  -12.647
     0.520  -13.797    0.977  -13.174
     0.522  -13.054    0.977  -13.704
     0.524  -12.387    0.977  -14.236
     0.526  -11.785    0.977  -14.772
     0.528  -11.238    0.977  -15.310
     0.530  -10.740    0.977  -15.851
     0.532  -10.285    0.977  -16.395
     0.534   -9.866    0.977  -16.941
     0.536   -9.480    0.977  -17.491
     0.538   -9.124    0.976  -18.043
     0.540   -8.793    0.976  -18.598
     0.542   -8.485    0.976  -19.155
     0.544   -8.198    0.976  -19.716
     0.546   -7.930    0.976  -20.279
     0.548   -7.679    0.976  -20.845
     0.550   -7.443    0.976  -21.413
     0.552   -7.221    0.976  -21.985
     0.554   -7.012    0.976  -22.559
     0.556   -6.815    0.976  -23.136
     0.558   -6.629    0.976  -23.715
     0.560   -6.452    0.976  -24.298
     0.562   -6.285    0.975  -24.883
     0.564   -6.126    0.975  -25.470
     0.566   -5.975    0.975  -26.061
     0.568   -5.832    0.975  -26.654
     0.570   -5.695    0.975  -27.250
     0.572   -5.564    0.975  -27.848
     0.574   -5.439    0.975  -28.449
     0.576   -5.320    0.975  -29.053
     0.578   -5.205    0.975  -29.660
     0.580   -5.096    0.975  -30.269
     0.582   -4.991    0.975  -30.881
     0.584   -4.890    0.974  -31.496
     0.586   -4.794    0.974  -32.113
     0.588   -4.701    0.974  -32.733
     0.590   -4.611    0.974  -33.356
     0.592   -4.525    0.974  -33.981
     0.594   -4.442    0.974  -34.609
     0.596   -4.362    0.974  -35.240
     0.598   -4.285    0.974  -35.873
     0.600   -4.211    0.974  -36.509
     0.602   -4.139    0.974  -37.147
     0.604   -4.070    0.974  -37.788
     0.606   -4.002    0.974  -38.432
     0.608   -3.937    0.973  -39.079
     0.610   -3.874    0.973  -39.728
     0.612   -3.813    0.973  -40.379
     0.614   -3.754    0.973  -41.034
     0.616   -3.697    0.973  -41.691
     0.618   -3.642    0.973  -42.350
     0.620   -3.588    0.973  -43.012
     0.622   -3.535    0.973  -43.677
     0.624   -3.485    0.973  -44.344
     0.626   -3.435    0.973  -45.014
     0.628   -3.387    0.973  -45.687
     0.630   -3.341    0.973  -46.362
     0.632   -3.295    0.972  -47.039
     0.634   -3.251    0.972  -47.720
     0.636   -3.208    0.972  -48.403
     0.638   -3.166    0.972  -49.088
     0.640   -3.125    0.972  -49.776
     0.642   -3.085    0.972  -50.466
     0.644   -3.047    0.972  -51.160
     0.646   -3.009    0.972  -51.855
     0.648   -2.972    0.972  -52.553
     0.650   -2.936    0.972  -53.254
     0.652   -2.901    0.972  -53.958
     0.654   -2.867    0.972  -54.663
     0.656   -2.833    0.971  -55.372
     0.658   -2.800    0.971  -56.083
     0.660   -2.768    0.971  -56.796
     0.662   -2.737    0.971  -57.512
     0.664   -2.707    0.971  -58.231
     0.666   -2.677    0.971  -58.952
     0.668   -2.647    0.971  -59.676
     0.670   -2.619    0.971  -60.402
     0.672   -2.591    0.971  -61.130
     0.674   -2.563    0.971  -61.862
     0.676   -2.537    0.971  -62.595
     0.678   -2.510    0.970  -63.332
     0.680   -2.485    0.970  -64.070
     0.682   -2.459    0.970  -64.811
     0.684   -2.435    0.970  -65.555
     0.686   -2.411    0.970  -66.301
     0.688   -2.387    0.970  -67.050
     0.690   -2.364    0.970  -67.801
     0.692   -2.341    0.970  -68.555
     0.694   -2.318    0.970  -69.311
     0.696   -2.296    0.970  -70.070
     0.698   -2.275    0.970  -70.831
     0.700   -2.254    0.970  -71.594
     0.702   -2.233    0.969  -72.360
     0.704   -2.213    0.969  -73.129
     0.706   -2.193    0.969  -73.900
     0.708   -2.173    0.969  -74.673
     0.710   -2.154    0.969  -75.449
     0.712   -2.135    0.969  -76.228
     0.714   -2.116    0.969  -77.009
     0.716   -2.098    0.969  -77.792
     0.718   -2.080    0.969  -78.578
     0.720   -2.062    0.969  -79.366
     0.722   -2.045    0.969  -80.156
     0.724   -2.027    0.969  -80.949
     0.726   -2.011    0.968  -81.745
     0.728   -1.994    0.968  -82.543
     0.730   -1.978    0.968  -83.343
     0.732   -1.962    0.968  -84.146
     0.734   -1.946    0.968  -84.951
     0.736   -1.931    0.968  -85.759
     0.738   -1.915    0.968  -86.569
     0.740   -1.900    0.968  -87.381
     0.742   -1.886    0.968  -88.196
     0.744   -1.871    0.968  -89.014
     0.746   -1.857    0.968  -89.833
     0.748   -1.843    0.968  -90.655
     0.750   -1.829    0.967  -91.480
     0.752   -1.815    0.967  -92.307
     0.754   -1.801    0.967  -93.136
     0.756   -1.788    0.967  -93.968
     0.758   -1.775    0.967  -94.802
     0.760   -1.762    0.967  -95.638
     0.762   -1.749    0.967  -96.477
     0.764   -1.737    0.967  -97.319
     0.766   -1.725    0.967  -98.162
     0.768   -1.712    0.967  -99.008
     0.770   -1.700    0.967  -99.857
     0.772   -1.689    0.967 -100.707
     0.774   -1.677    0.966 -101.561
     0.776   -1.665    0.966 -102.416
     0.778   -1.654    0.966 -103.274
     0.780   -1.643    0.966 -104.134
     0.782   -1.632    0.966 -104.997
     0.784   -1.621    0.966 -105.862
     0.786   -1.610    0.966 -106.729
     0.788   -1.599    0.966 -107.599
     0.790   -1.589    0.966 -108.471
     0.792   -1.579    0.966 -109.345
     0.794   -1.568    0.966 -110.222
     0.796   -1.558    0.966 -111.101
     0.798   -1.548    0.965 -111.983
     0.800   -1.539    0.965 -112.866
     0.802   -1.529    0.965 -113.752
     0.804   -1.519    0.965 -114.641
     0.806   -1.510    0.965 -115.532
     0.808   -1.500    0.965 -116.425
     0.810   -1.491    0.965 -117.320
     0.812   -1.482    0.965 -118.218
     0.814   -1.473    0.965 -119.118
     0.816   -1.464    0.965 -120.020
     0.818   -1.455    0.965 -120.925
     0.820   -1.447    0.965 -121.832
     0.822   -1.438    0.964 -122.742
     0.824   -1.430    0.964 -123.653
     0.826   -1.421    0.964 -124.567
     0.828   -1.413    0.964 -125.483
     0.830   -1.405    0.964 -126.402
     0.832   -1.397    0.964 -127.323
     0.834   -1.389    0.964 -128.246
     0.836   -1.381    0.964 -129.171
     0.838   -1.373    0.964 -130.099
     0.840   -1.365    0.964 -131.029
     0.842   -1.358    0.964 -131.962
     0.844   -1.350    0.964 -132.896
     0.846   -1.343    0.963 -133.833
     0.848   -1.335    0.963 -134.772
     0.850   -1.328    0.963 -135.714
     0.852   -1.321    0.963 -136.658
     0.854   -1.313    0.963 -137.604
     0.856   -1.306    0.963 -138.552
     0.858   -1.299    0.963 -139.503
     0.860   -1.292    0.963 -140.455
     0.862   -1.286    0.963 -141.410
     0.864   -1.279    0.963 -142.368
     0.866   -1.272    0.963 -143.327
     0.868   -1.265    0.963 -144.289
     0.870   -1.259    0.962 -145.254
     0.872   -1.252    0.962 -146.220
     0.874   -1.246    0.962 -147.189
     0.876   -1.240    0.962 -148.160
     0.878   -1.233    0.962 -149.133
     0.880   -1.227    0.962 -150.108
     0.882   -1.221    0.962 -151.086
     0.884   -1.215    0.962 -152.066
     0.886   -1.209    0.962 -153.048
     0.888   -1.203    0.962 -154.032
     0.890   -1.197    0.962 -155.019
     0.892   -1.191    0.962 -156.008
     0.894   -1.185    0.961 -156.999
     0.896   -1.179    0.961 -157.992
     0.898   -1.174    0.961 -158.988
     0.900   -1.168    0.961 -159.986
     0.902   -1.162    0.961 -160.986
     0.904   -1.157    0.961 -161.988
     0.906   -1.151    0.961 -162.992
     0.908   -1.146    0.961 -163.999
     0.910   -1.140    0.961 -165.008
     0.912   -1.135    0.961 -166.019
     0.914   -1.130    0.961 -167.032
     0.916   -1.125    0.961 -168.048
     0.918   -1.119    0.960 -169.066
     0.920   -1.114    0.960 -170.086
     0.922   -1.109    0.960 -171.108
     0.924   -1.104    0.960 -172.132
     0.926   -1.099    0.960 -173.159
     0.928   -1.094    0.960 -174.187
     0.930   -1.089    0.960 -175.218
     0.932   -1.084    0.960 -176.251
     0.934   -1.080    0.960 -177.287
     0.936   -1.075    0.960 -178.324
     0.938   -1.070    0.960 -179.364
     0.940   -1.065    0.960 -180.406
     0.942   -1.061    0.959 -181.450
     0.944   -1.056    0.959 -182.496
     0.946   -1.051    0.959 -183.545
     0.948   -1.047    0.959 -184.595
     0.950   -1.042    0.959 -185.648
     0.952   -1.038    0.959 -186.703
     0.954   -1.033    0.959 -187.760
     0.956   -1.029    0.959 -188.820
     0.958   -1.025    0.959 -189.881
     0.960   -1.020    0.959 -190.945
     0.962   -1.016    0.959 -192.011
     0.964   -1.012    0.959 -193.079
     0.966   -1.008    0.958 -194.149
     0.968   -1.004    0.958 -195.221
     0.970   -0.999    0.958 -196.296
     0.972   -0.995    0.958 -197.372
     0.974   -0.991    0.958 -198.451
     0.976   -0.987    0.958 -199.532
     0.978   -0.983    0.958 -200.615
     0.980   -0.979    0.958 -201.700
     0.982   -0.975    0.958 -202.788
     0.984   -0.971    0.958 -203.877
     0.986   -0.968    0.958 -204.969
     0.988   -0.964    0.958 -206.063
     0.990   -0.960    0.958 -207.159
     0.992   -0.956    0.957 -208.257
     0.994   -0.952    0.957 -209.357
     0.996   -0.949    0.957 -210.459
     0.998   -0.945    0.957 -211.564
     1.000   -0.941    0.957 -212.671
     1.002   -0.938    0.957 -213.779
     1.004   -0.934    0.957 -214.890
     1.006   -0.930    0.957 -216.003
     1.008   -0.927    0.957 -217.118
     1.010   -0.923    0.957 -218.236
     1.012   -0.920    0.957 -219.355
     1.014   -0.916    0.957 -220.477
     1.016   -0.913    0.956 -221.600
     1.018   -0.909    0.956 -222.726
     1.020   -0.906    0.956 -223.854
     1.022   -0.903    0.956 -224.984
     1.024   -0.899    0.956 -226.116
     1.026   -0.896    0.956 -227.250
     1.028   -0.893    0.956 -228.386
     1.030   -0.889    0.956 -229.525
     1.032   -0.886    0.956 -230.665
     1.034   -0.883    0.956 -231.808
     1.036   -0.880    0.956 -232.953
     1.038   -0.877    0.956 -234.099
     1.040   -0.873    0.955 -235.248
     1.042   -0.870    0.955 -236.399
     1.044   -0.867    0.955 -237.552
     1.046   -0.864    0.955 -238.708
     1.048   -0.861    0.955 -239.865
     1.050   -0.858    0.955 -241.024
     1.052   -0.855    0.955 -242.186
     1.054   -0.852    0.955 -243.349
     1.056   -0.849    0.955 -244.515
     1.058   -0.846    0.955 -245.683
     1.060   -0.843    0.955 -246.852
     1.062   -0.840    0.955 -248.024
     1.064   -0.837    0.954 -249.198
     1.066   -0.834    0.954 -250.374
     1.068   -0.831    0.954 -251.552
     1.070   -0.829    0.954 -252.732
     1.072   -0.826    0.954 -253.915
     1.074   -0.823    0.954 -255.099
     1.076   -0.820    0.954 -256.285
     1.078   -0.817    0.954 -257.474
     1.080   -0.815    0.954 -258.664
     1.082   -0.812    0.954 -259.857
     1.084   -0.809    0.954 -261.052
     1.086   -0.807    0.954 -262.248
     1.088   -0.804    0.953 -263.447
     1.090   -0.801    0.953 -264.648
     1.092   -0.799    0.953 -265.851
     1.094   -0.796    0.953 -267.056
     1.096   -0.793    0.953 -268.263
     1.098   -0.791    0.953 -269.472
     1.100   -0.788    0.953 -270.683
     1.102   -0.786    0.953 -271.896
     1.104   -0.783    0.953 -273.111
     1.106   -0.781    0.953 -274.328
     1.108   -0.778    0.953 -275.547
     1.110   -0.776    0.953 -276.769
     1.112   -0.773    0.953 -277.992
     1.114   -0.771    0.952 -279.217
     1.116   -0.768    0.952 -280.445
     1.118   -0.766    0.952 -281.674
     1.120   -0.763    0.952 -282.906
     1.122   -0.761    0.952 -284.139
     1.124   -0.759    0.952 -285.375
     1.126   -0.756    0.952 -286.612
     1.128   -0.754    0.952 -287.852
     1.130   -0.752    0.952 -289.094
     1.132   -0.749    0.952 -290.337
     1.134   -0.747    0.952 -291.583
     1.136   -0.745    0.952 -292.831
     1.138   -0.742    0.951 -294.080
     1.140   -0.740    0.951 -295.332
     1.142   -0.738    0.951 -296.586
     1.144   -0.736    0.951 -297.842
     1.146   -0.733    0.951 -299.099
     1.148   -0.731    0.951 -300.359
     1.150   -0.729    0.951 -301.621
     1.152   -0.727    0.951 -302.885
     1.154   -0.725    0.951 -304.151
     1.156   -0.722    0.951 -305.418
     1.158   -0.720    0.951 -306.688
     1.160   -0.718    0.951 -307.960
     1.162   -0.716    0.950 -309.234
     1.164   -0.714    0.950 -310.510
     1.166   -0.712    0.950 -311.788
     1.168   -0.710    0.950 -313.068
     1.170   -0.708    0.950 -314.349
     1.172   -0.706    0.950 -315.633
     1.174   -0.704    0.950 -316.919
     1.176   -0.702    0.950 -318.207
     1.178   -0.700    0.950 -319.497
     1.180   -0.697    0.950 -320.789
     1.182   -0.695    0.950 -322.082
     1.184   -0.694    0.950 -323.378
     1.186   -0.692    0.950 -324.676
     1.188   -0.690    0.949 -325.976
     1.190   -0.688    0.949 -327.278
     1.192   -0.686    0.949 -328.581
     1.194   -0.684    0.949 -329.887
     1.196   -0.682    0.949 -331.195
     1.198   -0.680    0.949 -332.504
     1.200   -0.678    0.949 -333.816



 infinite isoscalar nuclear matter incompressibility

    rho[fm-3]   k

     0.001   -1.338
     0.002   -1.923
     0.003   -2.279
     0.004   -2.485
     0.005   -2.576
     0.006   -2.573
     0.007   -2.490
     0.008   -2.335
     0.009   -2.117
     0.010   -1.840
     0.011   -1.510
     0.012   -1.129
     0.013   -0.700
     0.014   -0.227
     0.015    0.288
     0.016    0.844
     0.017    1.439
     0.018    2.071
     0.019    2.738
     0.020    3.440
     0.021    4.176
     0.022    4.944
     0.023    5.743
     0.024    6.572
     0.025    7.432
     0.026    8.320
     0.027    9.236
     0.028   10.180
     0.029   11.151
     0.030   12.148
     0.031   13.171
     0.032   14.220
     0.033   15.293
     0.034   16.390
     0.035   17.512
     0.036   18.657
     0.037   19.825
     0.038   21.015
     0.039   22.229
     0.040   23.464
     0.041   24.721
     0.042   25.999
     0.043   27.298
     0.044   28.618
     0.045   29.959
     0.046   31.320
     0.047   32.700
     0.048   34.101
     0.049   35.521
     0.050   36.960
     0.051   38.419
     0.052   39.896
     0.053   41.392
     0.054   42.906
     0.055   44.438
     0.056   45.989
     0.057   47.557
     0.058   49.143
     0.059   50.746
     0.060   52.367
     0.061   54.005
     0.062   55.660
     0.063   57.332
     0.064   59.020
     0.065   60.725
     0.066   62.446
     0.067   64.184
     0.068   65.937
     0.069   67.707
     0.070   69.493
     0.071   71.294
     0.072   73.111
     0.073   74.943
     0.074   76.791
     0.075   78.654
     0.076   80.532
     0.077   82.425
     0.078   84.333
     0.079   86.255
     0.080   88.193
     0.081   90.145
     0.082   92.111
     0.083   94.092
     0.084   96.087
     0.085   98.097
     0.086  100.120
     0.087  102.158
     0.088  104.209
     0.089  106.275
     0.090  108.354
     0.091  110.447
     0.092  112.553
     0.093  114.673
     0.094  116.806
     0.095  118.953
     0.096  121.113
     0.097  123.286
     0.098  125.472
     0.099  127.672
     0.100  129.884
     0.101  132.109
     0.102  134.347
     0.103  136.598
     0.104  138.861
     0.105  141.138
     0.106  143.426
     0.107  145.728
     0.108  148.041
     0.109  150.367
     0.110  152.706
     0.111  155.056
     0.112  157.419
     0.113  159.794
     0.114  162.181
     0.115  164.580
     0.116  166.991
     0.117  169.414
     0.118  171.849
     0.119  174.296
     0.120  176.754
     0.121  179.224
     0.122  181.706
     0.123  184.199
     0.124  186.704
     0.125  189.220
     0.126  191.748
     0.127  194.287
     0.128  196.838
     0.129  199.399
     0.130  201.973
     0.131  204.557
     0.132  207.152
     0.133  209.759
     0.134  212.376
     0.135  215.005
     0.136  217.644
     0.137  220.295
     0.138  222.956
     0.139  225.629
     0.140  228.312
     0.141  231.005
     0.142  233.710
     0.143  236.425
     0.144  239.151
     0.145  241.887
     0.146  244.635
     0.147  247.392
     0.148  250.160
     0.149  252.939
     0.150  255.728
     0.151  258.527
     0.152  261.337
     0.153  264.156
     0.154  266.987
     0.155  269.827
     0.156  272.678
     0.157  275.539
     0.158  278.409
     0.159  281.291
     0.160  284.182
     0.161  287.083
     0.162  289.994
     0.163  292.915
     0.164  295.846
     0.165  298.787
     0.166  301.738
     0.167  304.698
     0.168  307.669
     0.169  310.649
     0.170  313.639
     0.171  316.638
     0.172  319.647
     0.173  322.666
     0.174  325.695
     0.175  328.733
     0.176  331.781
     0.177  334.838
     0.178  337.905
     0.179  340.981
     0.180  344.067
     0.181  347.162
     0.182  350.266
     0.183  353.380
     0.184  356.504
     0.185  359.636
     0.186  362.778
     0.187  365.929
     0.188  369.089
     0.189  372.259
     0.190  375.437
     0.191  378.625
     0.192  381.822
     0.193  385.028
     0.194  388.243
     0.195  391.468
     0.196  394.701
     0.197  397.943
     0.198  401.194
     0.199  404.455
     0.200  407.724
     0.201  411.002
     0.202  414.289
     0.203  417.584
     0.204  420.889
     0.205  424.203
     0.206  427.525
     0.207  430.856
     0.208  434.196
     0.209  437.544
     0.210  440.901
     0.211  444.267
     0.212  447.642
     0.213  451.025
     0.214  454.417
     0.215  457.817
     0.216  461.226
     0.217  464.644
     0.218  468.070
     0.219  471.505
     0.220  474.948
     0.221  478.400
     0.222  481.860
     0.223  485.328
     0.224  488.805
     0.225  492.290
     0.226  495.784
     0.227  499.286
     0.228  502.797
     0.229  506.315
     0.230  509.842
     0.231  513.378
     0.232  516.921
     0.233  520.473
     0.234  524.033
     0.235  527.601
     0.236  531.178
     0.237  534.762
     0.238  538.355
     0.239  541.956
     0.240  545.565
     0.241  549.182
     0.242  552.808
     0.243  556.441
     0.244  560.082
     0.245  563.732
     0.246  567.389
     0.247  571.054
     0.248  574.728
     0.249  578.409
     0.250  582.098
     0.251  585.795
     0.252  589.501
     0.253  593.214
     0.254  596.934
     0.255  600.663
     0.256  604.400
     0.257  608.144
     0.258  611.896
     0.259  615.657
     0.260  619.424
     0.261  623.200
     0.262  626.983
     0.263  630.775
     0.264  634.573
     0.265  638.380
     0.266  642.194
     0.267  646.016
     0.268  649.846
     0.269  653.683
     0.270  657.528
     0.271  661.380
     0.272  665.240
     0.273  669.108
     0.274  672.983
     0.275  676.866
     0.276  680.756
     0.277  684.654
     0.278  688.560
     0.279  692.473
     0.280  696.393
     0.281  700.321
     0.282  704.256
     0.283  708.199
     0.284  712.149
     0.285  716.107
     0.286  720.072
     0.287  724.044
     0.288  728.024
     0.289  732.011
     0.290  736.006
     0.291  740.008
     0.292  744.017
     0.293  748.034
     0.294  752.057
     0.295  756.089
     0.296  760.127
     0.297  764.173
     0.298  768.226
     0.299  772.286
     0.300  776.353

 saturation density, k =    0.155 fm-3   269.827




